%OpenBCI Raw EEG Data
%Number of channels = 4
%Sample Rate = 200 Hz
%Board = OpenBCI_GUI$BoardGanglionBLE
Sample Index, EXG Channel 0, EXG Channel 1, EXG Channel 2, EXG Channel 3, Accel Channel 0, Accel Channel 1, Accel Channel 2, Other, Other, Other, Other, Other, Timestamp, Other, Timestamp (Formatted)
2.0, -156.76538644265383, 78.8314812160097, -42.08322425140068, 93.5442476416938, -0.04800000227987766, 0.0, 0.0, 0.0, 0.0, 0.0, 0.0, 0.0, 1.65118553400001E9, 0.0, 2022-04-28 15:38:54.000
2.0, 17.151181196793914, 90.62712567625567, 196.78605586849153, 190.31789889512584, -0.04800000227987766, 0.0, 0.0, 0.0, 0.0, 0.0, 0.0, 0.0, 1.65118553400001E9, 0.0, 2022-04-28 15:38:54.000
3.0, -131.22934954520315, 267.59732162952423, 244.118229707703, 71.7555904998444, -0.04800000227987766, 0.0, 0.0, 0.0, 0.0, 0.0, 0.0, 0.0, 1.651185534014279E9, 0.0, 2022-04-28 15:38:54.014
3.0, 43.4277182854712, 464.27492039930075, 136.9588762773201, -79.2223007613793, -0.04800000227987766, 0.0, 0.0, 0.0, 0.0, 0.0, 0.0, 0.0, 1.651185534014279E9, 0.0, 2022-04-28 15:38:54.014
4.0, 55.357999144122005, 307.1187144112773, 143.0829624547623, -22.52541743312031, -0.04800000227987766, 0.0, 0.0, 0.0, 0.0, 0.0, 0.0, 0.0, 1.651185534029396E9, 0.0, 2022-04-28 15:38:54.029
4.0, -59.59530579391867, 238.3569138259627, 27.39850707538426, -220.56807968672365, -0.04800000227987766, 0.0, 0.0, 0.0, 0.0, 0.0, 0.0, 0.0, 1.651185534029396E9, 0.0, 2022-04-28 15:38:54.029
5.0, -84.6339359972626, 251.6765675181523, -179.90227751852944, -439.22507049608976, -0.04800000227987766, 0.0, 0.0, 0.0, 0.0, 0.0, 0.0, 0.0, 1.6511855340300708E9, 0.0, 2022-04-28 15:38:54.030
5.0, 111.46771817933768, 80.97818379057571, -147.52409365214407, -526.4040084131993, -0.04800000227987766, 0.0, 0.0, 0.0, 0.0, 0.0, 0.0, 0.0, 1.6511855340300708E9, 0.0, 2022-04-28 15:38:54.030
6.0, -0.44878799468278885, 6.307341275271028, -14.039584433659911, -499.6132350806147, -0.04800000227987766, 0.0, 0.0, 0.0, 0.0, 0.0, 0.0, 0.0, 1.6511855340444129E9, 0.0, 2022-04-28 15:38:54.044
6.0, -163.79265845939517, -112.67009601509199, 83.84481710661203, -319.4229852654971, -0.04800000227987766, 0.0, 0.0, 0.0, 0.0, 0.0, 0.0, 0.0, 1.6511855340444129E9, 0.0, 2022-04-28 15:38:54.044
7.0, -368.4530736845918, 78.06854162504897, 34.025609796866775, -146.98741800850257, -0.04800000227987766, 0.0, 0.0, 0.0, 0.0, 0.0, 0.0, 0.0, 1.6511855340450854E9, 0.0, 2022-04-28 15:38:54.045
7.0, -469.5388295869343, 119.14199288841337, 148.20475544407964, -294.0552438660525, -0.04800000227987766, 0.0, 0.0, 0.0, 0.0, 0.0, 0.0, 0.0, 1.6511855340450854E9, 0.0, 2022-04-28 15:38:54.045
8.0, -622.0930886794813, 302.2007459695451, 229.43538248166442, -438.0339123602025, -0.04800000227987766, 0.0, 0.0, 0.0, 0.0, 0.0, 0.0, 0.0, 1.6511855340587704E9, 0.0, 2022-04-28 15:38:54.058
8.0, -443.1949742990546, 92.3007309064269, 46.73378984630108, -593.271549670957, -0.04800000227987766, 0.0, 0.0, 0.0, 0.0, 0.0, 0.0, 0.0, 1.6511855340587704E9, 0.0, 2022-04-28 15:38:54.058
9.0, -437.8132582628168, 275.6044474346563, 200.68116167234257, -552.4393219547346, -0.04800000227987766, 0.0, 0.0, 0.0, 0.0, 0.0, 0.0, 0.0, 1.651185534074352E9, 0.0, 2022-04-28 15:38:54.074
9.0, -553.2938890946098, 188.3825006680563, 87.17332806717604, -733.1176287140697, -0.04800000227987766, 0.0, 0.0, 0.0, 0.0, 0.0, 0.0, 0.0, 1.651185534074352E9, 0.0, 2022-04-28 15:38:54.074
10.0, -574.6449779416434, 251.53632126981393, 257.06950325425714, -870.5477323858067, -0.04800000227987766, 0.0, 0.9760000463575125, 0.0, 0.0, 0.0, 0.0, 0.0, 1.651185534075027E9, 0.0, 2022-04-28 15:38:54.075
10.0, -381.32206943212077, 84.64889559708536, 353.68046885961667, -1013.8887479375117, -0.04800000227987766, 0.0, 0.9760000463575125, 0.0, 0.0, 0.0, 0.0, 0.0, 1.651185534075027E9, 0.0, 2022-04-28 15:38:54.075
11.0, -491.19285033037886, 4.585117345675826, 507.1061246418394, -990.9276321595535, -0.04800000227987766, -0.17600000835955143, 0.9760000463575125, 0.0, 0.0, 0.0, 0.0, 0.0, 1.6511855340886712E9, 0.0, 2022-04-28 15:38:54.088
11.0, -650.4901490430348, -104.51898406166583, 558.7279637302272, -796.6790984109975, -0.04800000227987766, -0.17600000835955143, 0.9760000463575125, 0.0, 0.0, 0.0, 0.0, 0.0, 1.6511855340886712E9, 0.0, 2022-04-28 15:38:54.088
12.0, -861.7739270897582, 85.91672168206424, 512.1624693819322, -631.2820228706114, -0.04800000227987766, -0.17600000835955143, 0.9760000463575125, 0.0, 0.0, 0.0, 0.0, 0.0, 1.6511855341043992E9, 0.0, 2022-04-28 15:38:54.104
12.0, -960.55216471944, 109.57345885178074, 674.5227461582981, -796.4472246137448, -0.04800000227987766, -0.17600000835955143, 0.9760000463575125, 0.0, 0.0, 0.0, 0.0, 0.0, 1.6511855341043992E9, 0.0, 2022-04-28 15:38:54.104
13.0, -1111.5319259306416, 288.3649860834703, 733.8712185551412, -941.9854313894175, -0.04800000227987766, -0.17600000835955143, 0.9760000463575125, 0.0, 0.0, 0.0, 0.0, 0.0, 1.6511855341052349E9, 0.0, 2022-04-28 15:38:54.105
13.0, -928.7742347959429, 92.98326264834031, 491.6640777247958, -1048.9035612726584, -0.04800000227987766, -0.17600000835955143, 0.9760000463575125, 0.0, 0.0, 0.0, 0.0, 0.0, 1.6511855341052349E9, 0.0, 2022-04-28 15:38:54.105
14.0, -924.6341655449942, 274.01685990346596, 726.4344274932519, -1070.2153811701573, -0.04800000227987766, -0.17600000835955143, 0.9760000463575125, 0.0, 0.0, 0.0, 0.0, 0.0, 1.6511855341187217E9, 0.0, 2022-04-28 15:38:54.118
14.0, -1040.6009833710268, 183.83291237195954, 615.2677712603472, -1258.9456925340928, -0.04800000227987766, -0.17600000835955143, 0.9760000463575125, 0.0, 0.0, 0.0, 0.0, 0.0, 1.6511855341187217E9, 0.0, 2022-04-28 15:38:54.118
15.0, -1056.843368878588, 382.56932606734335, 609.0801067836583, -1370.2787743150257, -0.04800000227987766, -0.17600000835955143, 0.9760000463575125, 0.0, 0.0, 0.0, 0.0, 0.0, 1.6511855341342816E9, 0.0, 2022-04-28 15:38:54.134
15.0, -873.4461548514664, 527.6325655486435, 449.98102276865393, -1550.8729333253577, -0.04800000227987766, -0.17600000835955143, 0.9760000463575125, 0.0, 0.0, 0.0, 0.0, 0.0, 1.6511855341342816E9, 0.0, 2022-04-28 15:38:54.134
16.0, -983.6984055452049, 470.53177302516997, 547.3904570145532, -1500.2702169748954, -0.04800000227987766, -0.17600000835955143, 0.9760000463575125, 0.0, 0.0, 0.0, 0.0, 0.0, 1.6511855341350155E9, 0.0, 2022-04-28 15:38:54.135
16.0, -1145.0339497337118, 306.16316997259855, 605.9909494202584, -1276.4876932762563, -0.04800000227987766, -0.17600000835955143, 0.9760000463575125, 0.0, 0.0, 0.0, 0.0, 0.0, 1.6511855341350155E9, 0.0, 2022-04-28 15:38:54.135
17.0, -1344.1967120240442, 112.52797981677577, 471.21243481710553, -1101.565092548728, -0.04800000227987766, -0.17600000835955143, 0.9760000463575125, 0.0, 0.0, 0.0, 0.0, 0.0, 1.651185534148651E9, 0.0, 2022-04-28 15:38:54.148
17.0, -1453.54016702855, 116.17625222355127, 651.6102490797639, -1295.4602057514712, -0.04800000227987766, -0.17600000835955143, 0.9760000463575125, 0.0, 0.0, 0.0, 0.0, 0.0, 1.651185534148651E9, 0.0, 2022-04-28 15:38:54.148
18.0, -1604.5461075394414, 282.0314655085094, 775.4383366126567, -1448.6988665359095, -0.04800000227987766, -0.17600000835955143, 0.9760000463575125, 0.0, 0.0, 0.0, 0.0, 0.0, 1.65118553416431E9, 0.0, 2022-04-28 15:38:54.164
18.0, -1420.8422217159532, 103.3446554755792, 950.7068780860864, -1495.0829757363535, -0.04800000227987766, -0.17600000835955143, 0.9760000463575125, 0.0, 0.0, 0.0, 0.0, 0.0, 1.65118553416431E9, 0.0, 2022-04-28 15:38:54.164
19.0, -1415.9392128740437, 283.12164634559304, 728.3885252200998, -1565.2565885549411, -0.04800000227987766, -0.17600000835955143, 0.9760000463575125, 0.0, 0.0, 0.0, 0.0, 0.0, 1.6511855341651337E9, 0.0, 2022-04-28 15:38:54.165
19.0, -1532.9045839882456, 180.54367036093026, 659.4191601872444, -1769.660820633173, -0.04800000227987766, -0.17600000835955143, 0.9760000463575125, 0.0, 0.0, 0.0, 0.0, 0.0, 1.6511855341651337E9, 0.0, 2022-04-28 15:38:54.165
20.0, -1543.645576660987, 382.29444342060015, 566.3947586393915, -1809.8797047566622, -0.04800000227987766, -0.17600000835955143, 0.9600000455975533, 0.0, 0.0, 0.0, 0.0, 0.0, 1.6511855341786616E9, 0.0, 2022-04-28 15:38:54.178
20.0, -1360.566254130099, 546.0721422801726, 445.6820077695884, -2052.6459606303833, -0.04800000227987766, -0.17600000835955143, 0.9600000455975533, 0.0, 0.0, 0.0, 0.0, 0.0, 1.6511855341786616E9, 0.0, 2022-04-28 15:38:54.178
21.0, -1470.6352497260086, 476.1023540091701, 557.4376982455142, -2009.4295466924086, -0.04800000227987766, -0.17600000835955143, 0.9600000455975533, 0.0, 0.0, 0.0, 0.0, 0.0, 1.6511855341943257E9, 0.0, 2022-04-28 15:38:54.194
21.0, -1630.5496319313534, 417.1091721081175, 534.1325116716325, -1797.5099856532179, -0.04800000227987766, -0.17600000835955143, 0.9600000455975533, 0.0, 0.0, 0.0, 0.0, 0.0, 1.6511855341943257E9, 0.0, 2022-04-28 15:38:54.194
22.0, -1836.4442141419277, 568.8892719098367, 510.825455147773, -1620.1377504547127, -0.04800000227987766, -0.17600000835955143, 0.9600000455975533, 0.0, 0.0, 0.0, 0.0, 0.0, 1.6511855341950283E9, 0.0, 2022-04-28 15:38:54.195
22.0, -1943.8055221699178, 581.3861476117745, 713.202661450021, -1820.364514282439, -0.04800000227987766, -0.17600000835955143, 0.9600000455975533, 0.0, 0.0, 0.0, 0.0, 0.0, 1.6511855341950283E9, 0.0, 2022-04-28 15:38:54.195
23.0, -2095.5183037724346, 733.8225998557173, 816.5435770256445, -1955.1318091857247, -0.04800000227987766, -0.17600000835955143, 0.9600000455975533, 0.0, 0.0, 0.0, 0.0, 0.0, 1.6511855342086165E9, 0.0, 2022-04-28 15:38:54.208
23.0, -1906.7505934089422, 571.658667827025, 903.2213683486916, -1936.7576807034202, -0.04800000227987766, -0.17600000835955143, 0.9600000455975533, 0.0, 0.0, 0.0, 0.0, 0.0, 1.6511855342086165E9, 0.0, 2022-04-28 15:38:54.208
24.0, -1904.8507242314517, 784.7132885027677, 724.8879788615741, -2086.0488770846277, -0.04800000227987766, -0.17600000835955143, 0.9600000455975533, 0.0, 0.0, 0.0, 0.0, 0.0, 1.6511855342243288E9, 0.0, 2022-04-28 15:38:54.224
24.0, -2024.9127325089648, 663.2824768414721, 680.5458550369367, -2288.6953561836854, -0.04800000227987766, -0.17600000835955143, 0.9600000455975533, 0.0, 0.0, 0.0, 0.0, 0.0, 1.6511855342243288E9, 0.0, 2022-04-28 15:38:54.224
25.0, -2040.7325093215331, 699.5052778623067, 633.9859705385752, -2182.4878072920255, -0.04800000227987766, -0.17600000835955143, 0.9600000455975533, 0.0, 0.0, 0.0, 0.0, 0.0, 1.6511855342250369E9, 0.0, 2022-04-28 15:38:54.225
25.0, -1847.5292776105925, 616.9077173909172, 857.1364511447027, -2038.8606893937103, -0.04800000227987766, -0.17600000835955143, 0.9600000455975533, 0.0, 0.0, 0.0, 0.0, 0.0, 1.6511855342250369E9, 0.0, 2022-04-28 15:38:54.225
26.0, -1963.185683740303, 504.6097414214164, 1037.7661392046139, -2015.2712704231963, -0.04800000227987766, -0.17600000835955143, 0.9600000455975533, 0.0, 0.0, 0.0, 0.0, 0.0, 1.651185534238759E9, 0.0, 2022-04-28 15:38:54.238
26.0, -2117.7594888089225, 451.3273867527023, 1004.9915259429254, -1800.8908552131616, -0.04800000227987766, -0.17600000835955143, 0.9600000455975533, 0.0, 0.0, 0.0, 0.0, 0.0, 1.651185534238759E9, 0.0, 2022-04-28 15:38:54.238
27.0, -2329.753847847227, 570.6975135384127, 987.0923647549935, -1608.8357727886178, -0.04800000227987766, -0.17600000835955143, 0.9600000455975533, 0.0, 0.0, 0.0, 0.0, 0.0, 1.651185534254454E9, 0.0, 2022-04-28 15:38:54.254
27.0, -2436.2400192855857, 587.9702414837666, 1222.2236148691736, -1822.511216857005, -0.04800000227987766, -0.17600000835955143, 0.9600000455975533, 0.0, 0.0, 0.0, 0.0, 0.0, 1.651185534254454E9, 0.0, 2022-04-28 15:38:54.254
28.0, -2587.7508462904952, 730.159367849119, 1344.9895708146505, -1978.7978961053304, -0.04800000227987766, -0.17600000835955143, 0.9600000455975533, 0.0, 0.0, 0.0, 0.0, 0.0, 1.6511855342551537E9, 0.0, 2022-04-28 15:38:54.255
28.0, -2404.44338986231, 507.61101113585755, 1367.6664541959763, -1857.2960263448767, -0.04800000227987766, -0.17600000835955143, 0.9600000455975533, 0.0, 0.0, 0.0, 0.0, 0.0, 1.6511855342551537E9, 0.0, 2022-04-28 15:38:54.255
29.0, -2399.1813506246544, 321.0068328967318, 1218.915673358366, -2079.9603199567646, -0.04800000227987766, -0.17600000835955143, 0.9600000455975533, 0.0, 0.0, 0.0, 0.0, 0.0, 1.6511855342686994E9, 0.0, 2022-04-28 15:38:54.268
29.0, -2516.6142092333175, 178.70737948268652, 1181.2268315549009, -2309.69863433484, -0.04800000227987766, -0.17600000835955143, 0.9600000455975533, 0.0, 0.0, 0.0, 0.0, 0.0, 1.6511855342686994E9, 0.0, 2022-04-28 15:38:54.268
30.0, -2529.019457386341, 254.285147737246, 1050.8595289494842, -2160.482235952746, -0.04800000227987766, -0.17600000835955143, 0.9760000463575125, 0.0, 0.0, 0.0, 0.0, 0.0, 1.651185534284341E9, 0.0, 2022-04-28 15:38:54.284
30.0, -2343.165129088331, 112.70936496462673, 891.4425534382463, -2046.475125703495, -0.04800000227987766, -0.17600000835955143, 0.9760000463575125, 0.0, 0.0, 0.0, 0.0, 0.0, 1.651185534284341E9, 0.0, 2022-04-28 15:38:54.284
31.0, -2453.892347076442, 12.667041149921715, 1039.4266547849402, -2045.7439752621576, -0.04800000227987766, -0.17600000835955143, 0.9760000463575125, 0.0, 0.0, 0.0, 0.0, 0.0, 1.6511855342850823E9, 0.0, 2022-04-28 15:38:54.285
31.0, -2617.07540184306, -169.69796048942953, 1068.5455158399418, -2224.4737941445783, -0.04800000227987766, -0.17600000835955143, 0.9760000463575125, 0.0, 0.0, 0.0, 0.0, 0.0, 1.6511855342850823E9, 0.0, 2022-04-28 15:38:54.285
32.0, -2815.0900148469955, -358.3740433040075, 895.3432690920308, -2045.822513161227, -0.04800000227987766, -0.17600000835955143, 0.9760000463575125, 0.0, 0.0, 0.0, 0.0, 0.0, 1.6511855342987523E9, 0.0, 2022-04-28 15:38:54.298
32.0, -2918.961996216327, -370.3379832622595, 698.7610377711244, -1818.01211721031, -0.04800000227987766, -0.17600000835955143, 0.9760000463575125, 0.0, 0.0, 0.0, 0.0, 0.0, 1.6511855342987523E9, 0.0, 2022-04-28 15:38:54.298
33.0, -3076.120072154328, -215.53043444640934, 844.6171360430308, -2007.0266609708779, -0.04800000227987766, -0.17600000835955143, 0.9760000463575125, 0.0, 0.0, 0.0, 0.0, 0.0, 1.6511855343143435E9, 0.0, 2022-04-28 15:38:54.314
33.0, -2892.887413725257, 13.063470545224845, 869.8296715943143, -1822.918865952175, -0.04800000227987766, -0.17600000835955143, 0.9760000463575125, 0.0, 0.0, 0.0, 0.0, 0.0, 1.6511855343143435E9, 0.0, 2022-04-28 15:38:54.314
34.0, -2887.939526083879, -173.43973039509729, 736.4012608751655, -1612.8636450408958, -0.04800000227987766, -0.17600000835955143, 0.9760000463575125, 0.0, 0.0, 0.0, 0.0, 0.0, 1.651185534315065E9, 0.0, 2022-04-28 15:38:54.315
34.0, -3005.110591695644, -285.5918502663262, 712.2807761109434, -1369.5962425731122, -0.04800000227987766, -0.17600000835955143, 0.9760000463575125, 0.0, 0.0, 0.0, 0.0, 0.0, 1.651185534315065E9, 0.0, 2022-04-28 15:38:54.315
35.0, -3012.5342931076884, -76.43607529439032, 904.6200909321196, -1213.3226529746316, -0.04800000227987766, -0.17600000835955143, 0.9760000463575125, 0.0, 0.0, 0.0, 0.0, 0.0, 1.6511855343288078E9, 0.0, 2022-04-28 15:38:54.328
35.0, -2835.577186804265, 9.577883786521852, 1026.5763585371897, -1111.0139497867785, -0.04800000227987766, -0.17600000835955143, 0.9760000463575125, 0.0, 0.0, 0.0, 0.0, 0.0, 1.6511855343288078E9, 0.0, 2022-04-28 15:38:54.328
36.0, -2944.685028111562, -6.971173517405987, 1084.1072395555675, -1057.7222453681752, -0.04800000227987766, -0.17600000835955143, 0.9760000463575125, 0.0, 0.0, 0.0, 0.0, 0.0, 1.651185534344938E9, 0.0, 2022-04-28 15:38:54.344
36.0, -3097.9797873953357, 61.175413525197655, 938.686839628499, -867.5838616709225, -0.04800000227987766, -0.17600000835955143, 0.9760000463575125, 0.0, 0.0, 0.0, 0.0, 0.0, 1.651185534344938E9, 0.0, 2022-04-28 15:38:54.344
37.0, -3315.6625342662446, -26.373774487525225, 1043.675181134604, -1081.5229686861858, -0.04800000227987766, -0.17600000835955143, 0.9760000463575125, 0.0, 0.0, 0.0, 0.0, 0.0, 1.6511855343595824E9, 0.0, 2022-04-28 15:38:54.359
37.0, -3412.5932613178156, 89.52759508928284, 1228.0148499505594, -864.936012502294, -0.04800000227987766, -0.17600000835955143, 0.9760000463575125, 0.0, 0.0, 0.0, 0.0, 0.0, 1.6511855343595824E9, 0.0, 2022-04-28 15:38:54.359
38.0, -3564.949305712711, 278.40563250146806, 1345.7207212559879, -1050.8763584992848, -0.04800000227987766, -0.17600000835955143, 0.9760000463575125, 0.0, 0.0, 0.0, 0.0, 0.0, 1.651185534360119E9, 0.0, 2022-04-28 15:38:54.360
38.0, -3378.3320378237404, 36.15174292167649, 1312.6300864480436, -840.4882864919491, -0.04800000227987766, -0.17600000835955143, 0.9760000463575125, 0.0, 0.0, 0.0, 0.0, 0.0, 1.651185534360119E9, 0.0, 2022-04-28 15:38:54.360
39.0, -3381.724127083551, 270.3592377468012, 1291.7988436948508, -637.0975673017092, -0.04800000227987766, -0.17600000835955143, 0.9760000463575125, 0.0, 0.0, 0.0, 0.0, 0.0, 1.6511855343744247E9, 0.0, 2022-04-28 15:38:54.374
39.0, -3498.016316205729, 192.58053836831823, 1231.3115717615, -398.79301207512617, -0.04800000227987766, -0.17600000835955143, 0.9760000463575125, 0.0, 0.0, 0.0, 0.0, 0.0, 1.6511855343744247E9, 0.0, 2022-04-28 15:38:54.374
40.0, -3501.617839863058, 406.13817558810115, 1361.8752191145904, -173.9558365889825, -0.04800000227987766, -0.17600000835955143, 0.9600000455975533, 0.0, 0.0, 0.0, 0.0, 0.0, 1.6511855343751245E9, 0.0, 2022-04-28 15:38:54.375
40.0, -3326.7251583351754, 501.5318037578836, 1514.6894012540579, -137.36839532246813, -0.04800000227987766, -0.17600000835955143, 0.9600000455975533, 0.0, 0.0, 0.0, 0.0, 0.0, 1.6511855343751245E9, 0.0, 2022-04-28 15:38:54.375
41.0, -3438.170437114779, 473.1871019937098, 1590.1119636604562, -88.55709105078131, -0.04800000227987766, -0.17600000835955143, 0.9600000455975533, 0.0, 0.0, 0.0, 0.0, 0.0, 1.6511855343887317E9, 0.0, 2022-04-28 15:38:54.388
41.0, -3586.962356851902, 546.1581599791534, 1433.6027603647672, 129.86989591130987, -0.04800000227987766, -0.17600000835955143, 0.9600000455975533, 0.0, 0.0, 0.0, 0.0, 0.0, 1.6511855343887317E9, 0.0, 2022-04-28 15:38:54.388
42.0, -3803.2763003390282, 504.9538122173399, 1516.0432450380176, -110.04281629621983, -0.04800000227987766, -0.17600000835955143, 0.9600000455975533, 0.0, 0.0, 0.0, 0.0, 0.0, 1.6511855344043949E9, 0.0, 2022-04-28 15:38:54.404
42.0, -3907.2492590071633, 556.4167055576108, 1760.688800639473, 109.93248924752697, -0.04800000227987766, -0.17600000835955143, 0.9600000455975533, 0.0, 0.0, 0.0, 0.0, 0.0, 1.6511855344043949E9, 0.0, 2022-04-28 15:38:54.404
43.0, -4059.7997781997547, 751.663792594336, 1868.8392275581136, -75.66004605358467, -0.04800000227987766, -0.17600000835955143, 0.9600000455975533, 0.0, 0.0, 0.0, 0.0, 0.0, 1.6511855344050229E9, 0.0, 2022-04-28 15:38:54.405
43.0, -3863.94495742023, 583.6805762345903, 1742.7634601518512, 163.15500551695004, -0.04800000227987766, -0.17600000835955143, 0.9600000455975533, 0.0, 0.0, 0.0, 0.0, 0.0, 1.6511855344050229E9, 0.0, 2022-04-28 15:38:54.405
44.0, -3871.1741840345785, 738.288040402811, 1843.4920556084253, 308.91760628996417, -0.04800000227987766, -0.17600000835955143, 0.9600000455975533, 0.0, 0.0, 0.0, 0.0, 0.0, 1.651185534418697E9, 0.0, 2022-04-28 15:38:54.418
44.0, -3992.9640260916203, 652.6667708172463, 1800.8702857634053, 548.2842931039631, -0.04800000227987766, -0.17600000835955143, 0.9600000455975533, 0.0, 0.0, 0.0, 0.0, 0.0, 1.651185534418697E9, 0.0, 2022-04-28 15:38:54.418
45.0, -3990.79488411732, 415.94606322189793, 1774.7339949230663, 351.3897801367566, -0.04800000227987766, -0.17600000835955143, 0.9600000455975533, 0.0, 0.0, 0.0, 0.0, 0.0, 1.6511855344344342E9, 0.0, 2022-04-28 15:38:54.434
45.0, -3817.6636954685673, 505.7747202576138, 1537.6355574321933, 334.01233499264345, -0.04800000227987766, -0.17600000835955143, 0.9600000455975533, 0.0, 0.0, 0.0, 0.0, 0.0, 1.6511855344344342E9, 0.0, 2022-04-28 15:38:54.434
46.0, -3924.643533701077, 466.3075560252182, 1601.4120713765733, 388.79625949356705, -0.04800000227987766, -0.17600000835955143, 0.9600000455975533, 0.0, 0.0, 0.0, 0.0, 0.0, 1.651185534435192E9, 0.0, 2022-04-28 15:38:54.435
46.0, -4074.692059823312, 554.9787140246481, 1405.383345249109, 627.4523653159849, -0.04800000227987766, -0.17600000835955143, 0.9600000455975533, 0.0, 0.0, 0.0, 0.0, 0.0, 1.651185534435192E9, 0.0, 2022-04-28 15:38:54.435
47.0, -4291.720324201975, 519.1373827992938, 1501.75869715726, 389.4470020858571, -0.04800000227987766, -0.17600000835955143, 0.9600000455975533, 0.0, 0.0, 0.0, 0.0, 0.0, 1.6511855344486527E9, 0.0, 2022-04-28 15:38:54.448
47.0, -4397.394937349949, 551.1714958697557, 1315.7828221106902, 585.4906878131442, -0.04800000227987766, -0.17600000835955143, 0.9600000455975533, 0.0, 0.0, 0.0, 0.0, 0.0, 1.6511855344486527E9, 0.0, 2022-04-28 15:38:54.448
48.0, -4547.96704946598, 668.9727346240543, 1469.8143416857347, 426.01013400265947, -0.04800000227987766, -0.17600000835955143, 0.9600000455975533, 0.0, 0.0, 0.0, 0.0, 0.0, 1.6511855344643705E9, 0.0, 2022-04-28 15:38:54.464
48.0, -4349.827149813529, 595.7885023411363, 1655.6107015344314, 227.39339710585773, -0.04800000227987766, -0.17600000835955143, 0.9600000455975533, 0.0, 0.0, 0.0, 0.0, 0.0, 1.6511855344643705E9, 0.0, 2022-04-28 15:38:54.464
49.0, -4357.651020520832, 762.1916109696031, 1822.2662534099072, 294.2216694140807, -0.04800000227987766, -0.17600000835955143, 0.9600000455975533, 0.0, 0.0, 0.0, 0.0, 0.0, 1.6511855344650662E9, 0.0, 2022-04-28 15:38:54.465
49.0, -4479.732574774418, 642.0884637925774, 1812.9071537707932, 519.7806455916725, -0.04800000227987766, -0.17600000835955143, 0.9600000455975533, 0.0, 0.0, 0.0, 0.0, 0.0, 1.6511855344650662E9, 0.0, 2022-04-28 15:38:54.465
50.0, -4476.40780371381, 412.57828331179917, 1728.8435525167733, 421.0659862612374, -0.04800000227987766, -0.17600000835955143, 0.9760000463575125, 0.0, 0.0, 0.0, 0.0, 0.0, 1.6511855344787009E9, 0.0, 2022-04-28 15:38:54.478
50.0, -4303.755322259385, 528.4478637389839, 1522.7788048582152, 312.04977250285447, -0.04800000227987766, -0.17600000835955143, 0.9760000463575125, 0.0, 0.0, 0.0, 0.0, 0.0, 1.6511855344787009E9, 0.0, 2022-04-28 15:38:54.478
51.0, -4412.077784575988, 463.42222320940346, 1621.845014784485, 377.9823387716897, -0.04800000227987766, -0.17600000835955143, 0.9760000463575125, 0.0, 0.0, 0.0, 0.0, 0.0, 1.6511855344943433E9, 0.0, 2022-04-28 15:38:54.494
51.0, -4564.527326469775, 505.90935665601864, 1427.525422936771, 164.49014980113134, -0.04800000227987766, -0.17600000835955143, 0.9760000463575125, 0.0, 0.0, 0.0, 0.0, 0.0, 1.6511855344943433E9, 0.0, 2022-04-28 15:38:54.494
52.0, -4779.655721670948, 553.4659244925715, 1412.8163964110427, 399.4231852176599, -0.04800000227987766, -0.17600000835955143, 0.9760000463575125, 0.0, 0.0, 0.0, 0.0, 0.0, 1.6511855344951007E9, 0.0, 2022-04-28 15:38:54.495
52.0, -4886.75523670204, 550.9115728228353, 1308.018789802678, 574.2541583962739, -0.04800000227987766, -0.17600000835955143, 0.9760000463575125, 0.0, 0.0, 0.0, 0.0, 0.0, 1.6511855344951007E9, 0.0, 2022-04-28 15:38:54.495
53.0, -5037.772396912798, 673.4550047209486, 1495.3578583830968, 397.8954360857606, -0.04800000227987766, -0.17600000835955143, 0.9760000463575125, 0.0, 0.0, 0.0, 0.0, 0.0, 1.651185534508812E9, 0.0, 2022-04-28 15:38:54.508
53.0, -4843.544432613999, 640.9459243561141, 1610.0661998740397, 229.0557826361619, -0.04800000227987766, -0.17600000835955143, 0.9760000463575125, 0.0, 0.0, 0.0, 0.0, 0.0, 1.651185534508812E9, 0.0, 2022-04-28 15:38:54.508
54.0, -4850.466987431981, 756.1797217908315, 1373.9550959714688, 256.7235625083558, -0.04800000227987766, -0.17600000835955143, 0.9760000463575125, 0.0, 0.0, 0.0, 0.0, 0.0, 1.6511855345243547E9, 0.0, 2022-04-28 15:38:54.524
54.0, -4971.662185396068, 609.6467016269453, 1392.1945880553685, 497.6161285042763, -0.04800000227987766, -0.17600000835955143, 0.9760000463575125, 0.0, 0.0, 0.0, 0.0, 0.0, 1.6511855345243547E9, 0.0, 2022-04-28 15:38:54.524
55.0, -4963.722377790138, 413.2869943534024, 1206.0803367104381, 459.4317499566823, -0.04800000227987766, -0.17600000835955143, 0.9760000463575125, 0.0, 0.0, 0.0, 0.0, 0.0, 1.6511855345250957E9, 0.0, 2022-04-28 15:38:54.525
55.0, -4799.765163732693, 547.429725964088, 1043.5480245361105, 293.2399456757121, -0.04800000227987766, -0.17600000835955143, 0.9760000463575125, 0.0, 0.0, 0.0, 0.0, 0.0, 1.6511855345250957E9, 0.0, 2022-04-28 15:38:54.525
56.0, -4906.774921164848, 459.10076881060377, 1148.3325414946303, 370.70636340789497, -0.04800000227987766, -0.17600000835955143, 0.9760000463575125, 0.0, 0.0, 0.0, 0.0, 0.0, 1.651185534538654E9, 0.0, 2022-04-28 15:38:54.538
56.0, -5056.883285686374, 492.0212381705642, 942.0864086882211, 169.7877180883661, -0.04800000227987766, -0.17600000835955143, 0.9760000463575125, 0.0, 0.0, 0.0, 0.0, 0.0, 1.651185534538654E9, 0.0, 2022-04-28 15:38:54.538
57.0, -5275.198075649794, 571.9466401236132, 922.7212067176588, 402.90690202638507, -0.04800000227987766, -0.17600000835955143, 0.9760000463575125, 0.0, 0.0, 0.0, 0.0, 0.0, 1.6511855345543644E9, 0.0, 2022-04-28 15:38:54.554
57.0, -5373.632242483553, 554.7804993269965, 823.9597986377776, 569.1435851068236, -0.04800000227987766, -0.17600000835955143, 0.9760000463575125, 0.0, 0.0, 0.0, 0.0, 0.0, 1.6511855345543644E9, 0.0, 2022-04-28 15:38:54.554
58.0, -5531.272765515838, 669.4925807178952, 1012.3871781053022, 381.8306958260946, -0.04800000227987766, -0.17600000835955143, 0.9760000463575125, 0.0, 0.0, 0.0, 0.0, 0.0, 1.6511855345551057E9, 0.0, 2022-04-28 15:38:54.555
58.0, -5333.110426463652, 638.8684099307284, 1077.4894865839742, 277.0854478171095, -0.04800000227987766, -0.17600000835955143, 0.9760000463575125, 0.0, 0.0, 0.0, 0.0, 0.0, 1.6511855345551057E9, 0.0, 2022-04-28 15:38:54.555
59.0, -5343.683123638388, 749.2665167227387, 925.1633613887243, 248.6565983039327, -0.04800000227987766, -0.17600000835955143, 0.9760000463575125, 0.0, 0.0, 0.0, 0.0, 0.0, 1.651185534568617E9, 0.0, 2022-04-28 15:38:54.568
59.0, -5462.006078436505, 608.3283868925646, 923.7141501558945, 472.54383920133114, -0.04800000227987766, -0.17600000835955143, 0.9760000463575125, 0.0, 0.0, 0.0, 0.0, 0.0, 1.651185534568617E9, 0.0, 2022-04-28 15:38:54.568
60.0, -5450.969633667264, 407.8510497678071, 1118.6377358464524, 523.3148510497995, -0.04800000227987766, -0.17600000835955143, 0.9760000463575125, 0.0, 0.0, 0.0, 0.0, 0.0, 1.6511855345843935E9, 0.0, 2022-04-28 15:38:54.584
60.0, -5288.111950196791, 544.3873173501343, 1046.9962122952566, 287.22431659698486, -0.04800000227987766, -0.17600000835955143, 0.9760000463575125, 0.0, 0.0, 0.0, 0.0, 0.0, 1.6511855345843935E9, 0.0, 2022-04-28 15:38:54.584
61.0, -5397.818175496999, 456.1705571953207, 1135.9085938418284, 355.72993403533474, -0.04800000227987766, -0.17600000835955143, 0.9760000463575125, 0.0, 0.0, 0.0, 0.0, 0.0, 1.651185534585134E9, 0.0, 2022-04-28 15:38:54.585
61.0, -5547.679706621449, 496.9148972625844, 932.8077168981545, 174.53178118215874, -0.04800000227987766, -0.17600000835955143, 0.9760000463575125, 0.0, 0.0, 0.0, 0.0, 0.0, 1.651185534585134E9, 0.0, 2022-04-28 15:38:54.585
62.0, -5758.686732071452, 573.6202453537844, 917.0178592852317, 418.3582986933179, -0.04800000227987766, -0.17600000835955143, 0.9760000463575125, 0.0, 0.0, 0.0, 0.0, 0.0, 1.6511855345986784E9, 0.0, 2022-04-28 15:38:54.598
62.0, -5864.604438716546, 549.8606609352864, 831.2825227510184, 553.677228840068, -0.04800000227987766, -0.17600000835955143, 0.9760000463575125, 0.0, 0.0, 0.0, 0.0, 0.0, 1.6511855345986784E9, 0.0, 2022-04-28 15:38:54.598
63.0, -6020.087039474398, 650.3386830948293, 1031.685061876662, 373.8852783702314, -0.04800000227987766, -0.17600000835955143, 0.9760000463575125, 0.0, 0.0, 0.0, 0.0, 0.0, 1.6511855346144516E9, 0.0, 2022-04-28 15:38:54.614
63.0, -5821.7676246240735, 638.2232771883719, 1021.48261479754, 333.01378170447424, -0.04800000227987766, -0.17600000835955143, 0.9760000463575125, 0.0, 0.0, 0.0, 0.0, 0.0, 1.6511855346144516E9, 0.0, 2022-04-28 15:38:54.614
64.0, -5826.745431465097, 755.5401988984086, 917.3787596309558, 236.3766367994249, -0.04800000227987766, -0.17600000835955143, 0.9760000463575125, 0.0, 0.0, 0.0, 0.0, 0.0, 1.6511855346150997E9, 0.0, 2022-04-28 15:38:54.615
64.0, -5951.695488984697, 599.3357974491082, 961.1019300129265, 463.58864875743166, -0.04800000227987766, -0.17600000835955143, 0.9760000463575125, 0.0, 0.0, 0.0, 0.0, 0.0, 1.6511855346150997E9, 0.0, 2022-04-28 15:38:54.615
65.0, -5950.674496296793, 406.7010305314325, 1069.6263469271362, 583.0878020916134, -0.04800000227987766, -0.17600000835955143, 0.9760000463575125, 0.0, 0.0, 0.0, 0.0, 0.0, 1.651185534628703E9, 0.0, 2022-04-28 15:38:54.628
65.0, -5779.054227230139, 552.4037929051556, 1051.8132034381852, 756.8884328324348, -0.04800000227987766, -0.17600000835955143, 0.9760000463575125, 0.0, 0.0, 0.0, 0.0, 0.0, 1.651185534628703E9, 0.0, 2022-04-28 15:38:54.628
66.0, -5881.5761047154665, 456.2771443440579, 1153.0822144383565, 832.4437616872601, -0.04800000227987766, -0.17600000835955143, 0.9760000463575125, 0.0, 0.0, 0.0, 0.0, 0.0, 1.6511855346443963E9, 0.0, 2022-04-28 15:38:54.644
66.0, -6039.6055773431435, 422.6591836423613, 968.5686402744614, 692.0404375507496, -0.04800000227987766, -0.17600000835955143, 0.9760000463575125, 0.0, 0.0, 0.0, 0.0, 0.0, 1.6511855346443963E9, 0.0, 2022-04-28 15:38:54.644
67.0, -6252.104822875466, 609.7813380253501, 837.9900333215483, 934.7113259756006, -0.04800000227987766, -0.17600000835955143, 0.9760000463575125, 0.0, 0.0, 0.0, 0.0, 0.0, 1.6511855346452146E9, 0.0, 2022-04-28 15:38:54.645
67.0, -6356.623806937132, 560.9120653043501, 810.1969668008387, 1049.1578744696453, -0.04800000227987766, -0.17600000835955143, 0.9760000463575125, 0.0, 0.0, 0.0, 0.0, 0.0, 1.6511855346452146E9, 0.0, 2022-04-28 15:38:54.645
68.0, -6515.700451552402, 651.6738273790106, 567.9131580214016, 845.5764203816652, -0.04800000227987766, -0.17600000835955143, 0.9760000463575125, 0.0, 0.0, 0.0, 0.0, 0.0, 1.6511855346590188E9, 0.0, 2022-04-28 15:38:54.659
68.0, -6309.201875498984, 643.7059705234133, 481.82440094137564, 857.820852836594, -0.04800000227987766, -0.17600000835955143, 0.9760000463575125, 0.0, 0.0, 0.0, 0.0, 0.0, 1.6511855346590188E9, 0.0, 2022-04-28 15:38:54.659
69.0, -6326.050124799367, 762.1972208195366, 427.8239854811691, 709.0121035496704, -0.04800000227987766, -0.17600000835955143, 0.9760000463575125, 0.0, 0.0, 0.0, 0.0, 0.0, 1.6511855346743643E9, 0.0, 2022-04-28 15:38:54.674
69.0, -6444.421698296908, 594.8217382025905, 508.6694028233178, 912.1952582923695, -0.04800000227987766, -0.17600000835955143, 0.9760000463575125, 0.0, 0.0, 0.0, 0.0, 0.0, 1.6511855346743643E9, 0.0, 2022-04-28 15:38:54.674
70.0, -6430.210078465287, 461.6364209805615, 524.7397529329173, 1088.297797455918, -0.04800000227987766, -0.17600000835955143, 0.9760000463575125, 0.0, 0.0, 0.0, 0.0, 0.0, 1.6511855346750858E9, 0.0, 2022-04-28 15:38:54.675
70.0, -6268.283630083781, 544.3742277002893, 601.532988673076, 1214.0855925655924, -0.04800000227987766, -0.17600000835955143, 0.9760000463575125, 0.0, 0.0, 0.0, 0.0, 0.0, 1.6511855346750858E9, 0.0, 2022-04-28 15:38:54.675
71.0, -6377.182036993559, 451.84910279652104, 706.882230524905, 1304.0395362498239, -0.04800000227987766, -0.17600000835955143, 0.9760000463575125, 0.0, 0.0, 0.0, 0.0, 0.0, 1.6511855346888187E9, 0.0, 2022-04-28 15:38:54.688
71.0, -6525.076380741317, 469.23402774054557, 932.2261624550447, 1173.517027796246, -0.04800000227987766, -0.17600000835955143, 0.9760000463575125, 0.0, 0.0, 0.0, 0.0, 0.0, 1.6511855346888187E9, 0.0, 2022-04-28 15:38:54.688
72.0, -6738.645237660967, 599.9809301914647, 857.5889790393412, 937.3928342438303, -0.04800000227987766, -0.17600000835955143, 0.9760000463575125, 0.0, 0.0, 0.0, 0.0, 0.0, 1.6511855347042923E9, 0.0, 2022-04-28 15:38:54.704
72.0, -6845.501659194939, 551.3435312677175, 843.311910958495, 1042.2353196516633, -0.04800000227987766, -0.17600000835955143, 0.9760000463575125, 0.0, 0.0, 0.0, 0.0, 0.0, 1.6511855347042923E9, 0.0, 2022-04-28 15:38:54.704
73.0, -7006.343536589295, 619.1909263138659, 615.1088255122304, 829.3676939737052, -0.04800000227987766, -0.17600000835955143, 0.9760000463575125, 0.0, 0.0, 0.0, 0.0, 0.0, 1.6511855347193663E9, 0.0, 2022-04-28 15:38:54.719
73.0, -6797.701997861266, 668.8754972252063, 432.7251243731007, 883.9216146273538, -0.04800000227987766, -0.17600000835955143, 0.9760000463575125, 0.0, 0.0, 0.0, 0.0, 0.0, 1.6511855347193663E9, 0.0, 2022-04-28 15:38:54.719
74.0, -6812.915910881013, 759.6166898501106, 450.3793221139349, 688.7755048894323, -0.04800000227987766, -0.17600000835955143, 0.9760000463575125, 0.0, 0.0, 0.0, 0.0, 0.0, 1.6511855347200606E9, 0.0, 2022-04-28 15:38:54.720
74.0, -6938.520450892858, 578.1492642001249, 547.0931349680759, 874.6504026371986, -0.04800000227987766, -0.17600000835955143, 0.9760000463575125, 0.0, 0.0, 0.0, 0.0, 0.0, 1.6511855347200606E9, 0.0, 2022-04-28 15:38:54.720
75.0, -6922.001312788576, 412.63625176111236, 480.3303109090775, 687.6928038522601, -0.04800000227987766, -0.17600000835955143, 0.9760000463575125, 0.0, 0.0, 0.0, 0.0, 0.0, 1.6511855347343445E9, 0.0, 2022-04-28 15:38:54.734
75.0, -6762.161728582345, 571.2454088819213, 584.9895412190817, 720.6974209612235, -0.04800000227987766, -0.17600000835955143, 0.9760000463575125, 0.0, 0.0, 0.0, 0.0, 0.0, 1.6511855347343445E9, 0.0, 2022-04-28 15:38:54.734
76.0, -6868.460905022919, 456.13502814574167, 712.2433771113865, 813.1496178158559, -0.04800000227987766, -0.17600000835955143, 0.9760000463575125, 0.0, 0.0, 0.0, 0.0, 0.0, 1.6511855347350786E9, 0.0, 2022-04-28 15:38:54.735
76.0, -7017.447299557738, 453.28896427946165, 467.1808226648718, 694.351695723366, -0.04800000227987766, -0.17600000835955143, 0.9760000463575125, 0.0, 0.0, 0.0, 0.0, 0.0, 1.6511855347350786E9, 0.0, 2022-04-28 15:38:54.735
77.0, -7228.233670910355, 623.6825461606495, 333.7411922458559, 458.82588616386056, -0.04800000227987766, -0.17600000835955143, 0.9760000463575125, 0.0, 0.0, 0.0, 0.0, 0.0, 1.6511855347486906E9, 0.0, 2022-04-28 15:38:54.748
77.0, -7337.958595710341, 550.8704339233227, 354.3069021021947, 540.8512419420294, -0.04800000227987766, -0.17600000835955143, 0.9760000463575125, 0.0, 0.0, 0.0, 0.0, 0.0, 1.6511855347486906E9, 0.0, 2022-04-28 15:38:54.748
78.0, -7493.605752066243, 621.047786641866, 147.80645609879866, 317.77742928499356, -0.04800000227987766, -0.17600000835955143, 0.9760000463575125, 0.0, 0.0, 0.0, 0.0, 0.0, 1.651185534764348E9, 0.0, 2022-04-28 15:38:54.764
78.0, -7284.496725843754, 696.0365206534043, 374.63325836136937, 417.0007150094025, -0.04800000227987766, -0.17600000835955143, 0.9760000463575125, 0.0, 0.0, 0.0, 0.0, 0.0, 1.651185534764348E9, 0.0, 2022-04-28 15:38:54.764
79.0, -7306.072208688129, 753.7656163694337, 478.877359776292, 184.3508885158226, -0.04800000227987766, -0.17600000835955143, 0.9760000463575125, 0.0, 0.0, 0.0, 0.0, 0.0, 1.6511855347650895E9, 0.0, 2022-04-28 15:38:54.765
79.0, -7429.219634429086, 560.008879465051, 584.3874173262157, 362.1850013588555, -0.04800000227987766, -0.17600000835955143, 0.9760000463575125, 0.0, 0.0, 0.0, 0.0, 0.0, 1.6511855347650895E9, 0.0, 2022-04-28 15:38:54.765
80.0, -7415.288507094141, 395.97686740849167, 439.5467018922791, 256.5552670103498, -0.04800000227987766, -0.17600000835955143, 0.9760000463575125, 0.0, 0.0, 0.0, 0.0, 0.0, 1.6511855347787535E9, 0.0, 2022-04-28 15:38:54.778
80.0, -7249.969969452824, 585.4364592637867, 574.4355435441248, 218.4026776123792, -0.04800000227987766, -0.17600000835955143, 0.9760000463575125, 0.0, 0.0, 0.0, 0.0, 0.0, 1.6511855347787535E9, 0.0, 2022-04-28 15:38:54.778
81.0, -7360.012785749044, 453.05148063227534, 722.3373670917936, 303.47231195447966, -0.04800000227987766, -0.17600000835955143, 0.9760000463575125, 0.0, 0.0, 0.0, 0.0, 0.0, 1.6511855347943485E9, 0.0, 2022-04-28 15:38:54.794
81.0, -7508.6812887876295, 491.7014767243527, 911.7819993472658, 203.0410385443829, -0.04800000227987766, -0.17600000835955143, 0.9760000463575125, 0.0, 0.0, 0.0, 0.0, 0.0, 1.6511855347943485E9, 0.0, 2022-04-28 15:38:54.794
82.0, -7723.222519695759, 623.2823768653907, 823.4941810932942, 436.9568211729638, -0.04800000227987766, -0.17600000835955143, 0.9760000463575125, 0.0, 0.0, 0.0, 0.0, 0.0, 1.6511855347950995E9, 0.0, 2022-04-28 15:38:54.795
82.0, -7829.787229033187, 548.2151049547829, 888.3515261248685, 519.1055936496705, -0.04800000227987766, -0.17600000835955143, 0.9760000463575125, 0.0, 0.0, 0.0, 0.0, 0.0, 1.6511855347950995E9, 0.0, 2022-04-28 15:38:54.795
83.0, -7985.183812092058, 583.5328501863405, 695.9654625542462, 293.1819772263989, -0.04800000227987766, -0.17600000835955143, 0.9760000463575125, 0.0, 0.0, 0.0, 0.0, 0.0, 1.6511855348086877E9, 0.0, 2022-04-28 15:38:54.808
83.0, -7775.169730080292, 714.4517880352214, 801.4886097540148, 455.4861555034295, -0.04800000227987766, -0.17600000835955143, 0.9760000463575125, 0.0, 0.0, 0.0, 0.0, 0.0, 1.6511855348086877E9, 0.0, 2022-04-28 15:38:54.808
84.0, -7790.013393004425, 753.1560126766562, 979.9921646891162, 660.4588523749262, -0.04800000227987766, -0.17600000835955143, 0.9760000463575125, 0.0, 0.0, 0.0, 0.0, 0.0, 1.6511855348243563E9, 0.0, 2022-04-28 15:38:54.824
84.0, -7920.8874520538375, 551.1901953695342, 1125.8333033611998, 838.2368667186238, -0.04800000227987766, -0.17600000835955143, 0.9760000463575125, 0.0, 0.0, 0.0, 0.0, 0.0, 1.6511855348243563E9, 0.0, 2022-04-28 15:38:54.824
85.0, -7899.196032310836, 409.8556361440569, 1363.1037762500346, 790.7700564810075, -0.04800000227987766, -0.17600000835955143, 0.9760000463575125, 0.0, 0.0, 0.0, 0.0, 0.0, 1.651185534825075E9, 0.0, 2022-04-28 15:38:54.825
85.0, -7742.015516973101, 580.451172622852, 1589.571548116859, 699.5183675121516, -0.04800000227987766, -0.17600000835955143, 0.9760000463575125, 0.0, 0.0, 0.0, 0.0, 0.0, 1.651185534825075E9, 0.0, 2022-04-28 15:38:54.825
86.0, -7850.719449085183, 453.52270802669227, 1704.0611054603942, 773.8694485812448, -0.04800000227987766, -0.17600000835955143, 0.9760000463575125, 0.0, 0.0, 0.0, 0.0, 0.0, 1.6511855348387053E9, 0.0, 2022-04-28 15:38:54.838
86.0, -8002.013361892663, 436.7305572256446, 1919.9692698023282, 728.893411714118, -0.04800000227987766, -0.17600000835955143, 0.9760000463575125, 0.0, 0.0, 0.0, 0.0, 0.0, 1.6511855348387053E9, 0.0, 2022-04-28 15:38:54.838
87.0, -8207.062726713251, 645.7573056491092, 1760.3166805938818, 498.1733735976741, -0.04800000227987766, -0.17600000835955143, 0.9760000463575125, 0.0, 0.0, 0.0, 0.0, 0.0, 1.651185534854326E9, 0.0, 2022-04-28 15:38:54.854
87.0, -8317.281318307389, 557.4246085956693, 1853.9450759845786, 530.6674943626858, -0.04800000227987766, -0.17600000835955143, 0.9760000463575125, 0.0, 0.0, 0.0, 0.0, 0.0, 1.651185534854326E9, 0.0, 2022-04-28 15:38:54.854
88.0, -8474.71614684211, 622.9906646688469, 1656.5064075738192, 287.9405074384995, -0.04800000227987766, -0.17600000835955143, 0.9760000463575125, 0.0, 0.0, 0.0, 0.0, 0.0, 1.6511855348550513E9, 0.0, 2022-04-28 15:38:54.855
88.0, -8264.533769332338, 715.3661935743876, 1746.5351492571644, 478.78012237744406, -0.04800000227987766, -0.17600000835955143, 0.9760000463575125, 0.0, 0.0, 0.0, 0.0, 0.0, 1.6511855348550513E9, 0.0, 2022-04-28 15:38:54.855
89.0, -8286.206489575561, 740.651657174807, 1509.309555167798, 632.4862706563435, -0.04800000227987766, -0.17600000835955143, 0.9760000463575125, 0.0, 0.0, 0.0, 0.0, 0.0, 1.6511855348686607E9, 0.0, 2022-04-28 15:38:54.868
89.0, -8411.545496690553, 540.1518806503154, 1651.635187881533, 788.1913954615593, -0.04800000227987766, -0.17600000835955143, 0.9760000463575125, 0.0, 0.0, 0.0, 0.0, 0.0, 1.6511855348686607E9, 0.0, 2022-04-28 15:38:54.868
90.0, -8385.957101193722, 418.8931043869816, 1815.1436139442958, 826.6151276063174, -0.04800000227987766, -0.17600000835955143, 0.9760000463575125, 0.0, 0.0, 0.0, 0.0, 0.0, 1.6511855348843992E9, 0.0, 2022-04-28 15:38:54.884
90.0, -8230.58669743454, 576.821599715855, 1606.4010979174636, 685.1066630329005, -0.04800000227987766, -0.17600000835955143, 0.9760000463575125, 0.0, 0.0, 0.0, 0.0, 0.0, 1.6511855348843992E9, 0.0, 2022-04-28 15:38:54.884
91.0, -8339.8665741398, 450.43168071331456, 1729.9673924534582, 765.3630461320281, -0.04800000227987766, -0.17600000835955143, 0.9760000463575125, 0.0, 0.0, 0.0, 0.0, 0.0, 1.6511855348850732E9, 0.0, 2022-04-28 15:38:54.885
91.0, -8486.564149901737, 411.8508727704175, 1915.2233367585577, 733.0764898145571, -0.04800000227987766, -0.17600000835955143, 0.9760000463575125, 0.0, 0.0, 0.0, 0.0, 0.0, 1.6511855348850732E9, 0.0, 2022-04-28 15:38:54.885
92.0, -8699.018516634591, 656.6235849703662, 1732.1963728270493, 970.7097329990938, -0.04800000227987766, -0.17600000835955143, 0.9760000463575125, 0.0, 0.0, 0.0, 0.0, 0.0, 1.651185534898678E9, 0.0, 2022-04-28 15:38:54.898
92.0, -8810.433876214549, 559.3226078231819, 1856.8135792505927, 1004.9578668433242, -0.04800000227987766, -0.17600000835955143, 0.9760000463575125, 0.0, 0.0, 0.0, 0.0, 0.0, 1.651185534898678E9, 0.0, 2022-04-28 15:38:54.898
93.0, -8968.444649342448, 618.3438389739022, 1673.5416518719867, 1239.3878857158124, -0.04800000227987766, -0.17600000835955143, 0.9760000463575125, 0.0, 0.0, 0.0, 0.0, 0.0, 1.6511855349143999E9, 0.0, 2022-04-28 15:38:54.914
93.0, -8753.452760489658, 734.7407452948391, 1714.7459996338002, 1007.5944963120855, -0.04800000227987766, -0.17600000835955143, 0.9760000463575125, 0.0, 0.0, 0.0, 0.0, 0.0, 1.6511855349143999E9, 0.0, 2022-04-28 15:38:54.914
94.0, -8778.26699669566, 738.0505567556247, 1531.7339953021146, 1116.6013603205793, -0.04800000227987766, -0.17600000835955143, 0.9760000463575125, 0.0, 0.0, 0.0, 0.0, 0.0, 1.651185534915117E9, 0.0, 2022-04-28 15:38:54.915
94.0, -8904.451221200638, 539.0430003134534, 1682.13781192014, 1259.740421274677, -0.04800000227987766, -0.17600000835955143, 0.9760000463575125, 0.0, 0.0, 0.0, 0.0, 0.0, 1.651185534915117E9, 0.0, 2022-04-28 15:38:54.915
95.0, -8881.129205076955, 470.98804081976414, 1714.33835053863, 1348.892156418413, -0.04800000227987766, -0.17600000835955143, 0.9760000463575125, 0.0, 0.0, 0.0, 0.0, 0.0, 1.6511855349287176E9, 0.0, 2022-04-28 15:38:54.928
95.0, -8722.953876351006, 553.8380445381626, 1636.716726958286, 1140.712495334912, -0.04800000227987766, -0.17600000835955143, 0.9760000463575125, 0.0, 0.0, 0.0, 0.0, 0.0, 1.6511855349287176E9, 0.0, 2022-04-28 15:38:54.928
96.0, -8830.17306818068, 438.1404995089397, 1761.315233882051, 1247.0808599246666, -0.04800000227987766, -0.17600000835955143, 0.9760000463575125, 0.0, 0.0, 0.0, 0.0, 0.0, 1.6511855349443786E9, 0.0, 2022-04-28 15:38:54.944
96.0, -8980.120617004111, 403.5726042184979, 1924.2364956517704, 1240.5958734015003, -0.04800000227987766, -0.17600000835955143, 0.9760000463575125, 0.0, 0.0, 0.0, 0.0, 0.0, 1.6511855349443786E9, 0.0, 2022-04-28 15:38:54.944
97.0, -9186.441547809634, 162.26864922745153, 1725.060643711593, 997.9418145264499, -0.04800000227987766, -0.17600000835955143, 0.9760000463575125, 0.0, 0.0, 0.0, 0.0, 0.0, 1.6511855349450903E9, 0.0, 2022-04-28 15:38:54.945
97.0, -9298.993836976122, 66.60200836090371, 1862.9283156781457, 991.9878937969916, -0.04800000227987766, -0.17600000835955143, 0.9760000463575125, 0.0, 0.0, 0.0, 0.0, 0.0, 1.6511855349450903E9, 0.0, 2022-04-28 15:38:54.945
98.0, -9458.889519681688, 81.64575593266636, 1731.1174116898328, 1230.696358218789, -0.04800000227987766, -0.17600000835955143, 0.9760000463575125, 0.0, 0.0, 0.0, 0.0, 0.0, 1.6511855349586363E9, 0.0, 2022-04-28 15:38:54.958
98.0, -9243.620878232177, 254.72084608208388, 1652.310239823535, 1064.4559352383949, -0.04800000227987766, -0.17600000835955143, 0.9760000463575125, 0.0, 0.0, 0.0, 0.0, 0.0, 1.6511855349586363E9, 0.0, 2022-04-28 15:38:54.958
99.0, -9262.380216409918, 258.0044782431796, 1533.7254920285195, 1102.9021067828871, -0.04800000227987766, -0.17600000835955143, 0.9760000463575125, 0.0, 0.0, 0.0, 0.0, 0.0, 1.6511855349744308E9, 0.0, 2022-04-28 15:38:54.974
99.0, -9397.600039207842, 45.3911657622084, 1701.4188661416993, 1235.292695264332, -0.04800000227987766, -0.17600000835955143, 0.9760000463575125, 0.0, 0.0, 0.0, 0.0, 0.0, 1.6511855349744308E9, 0.0, 2022-04-28 15:38:54.974
100.0, -9364.049396705348, -41.9841169025749, 1679.60402970016, 1416.9396361121908, -0.04800000227987766, -0.17600000835955143, 0.9600000455975533, 0.0, 0.0, 0.0, 0.0, 0.0, 1.651185534975088E9, 0.0, 2022-04-28 15:38:54.975
100.0, -9213.3015092914, 82.2964985249564, 1647.354872382246, 1617.480551536195, -0.04800000227987766, -0.17600000835955143, 0.9600000455975533, 0.0, 0.0, 0.0, 0.0, 0.0, 1.651185534975088E9, 0.0, 2022-04-28 15:38:54.975
0.0, 6.9019853682257235, 81.02119264006615, -141.4392764242366, 83.48017686093226, -0.04800000227987766, -0.17600000835955143, 0.9600000455975533, 0.0, 0.0, 0.0, 0.0, 0.0, 1.6511855349893131E9, 0.0, 2022-04-28 15:38:54.989
1.0, -134.76168505335227, 133.68459386611357, -63.6979760453105, 70.3119891169481, -0.04800000227987766, -0.19200000911951065, 0.9600000455975533, 0.0, 0.0, 0.0, 0.0, 0.0, 1.6511855349901333E9, 0.0, 2022-04-28 15:38:54.990
1.0, -346.6513268928975, 264.958822210785, -165.16146184317768, -155.05625216290355, -0.04800000227987766, -0.19200000911951065, 0.9600000455975533, 0.0, 0.0, 0.0, 0.0, 0.0, 1.6511855349901333E9, 0.0, 2022-04-28 15:38:54.990
2.0, -458.49677496775985, 171.93255071295425, -10.022931881248951, -170.33374348189682, -0.04800000227987766, -0.19200000911951065, 0.9600000455975533, 0.0, 0.0, 0.0, 0.0, 0.0, 1.6511855350036674E9, 0.0, 2022-04-28 15:38:55.003
2.0, -619.9632156547159, 231.8850169526413, -176.6934433565475, 57.169980672653764, -0.04800000227987766, -0.19200000911951065, 0.9600000455975533, 0.0, 0.0, 0.0, 0.0, 0.0, 1.6511855350036674E9, 0.0, 2022-04-28 15:38:55.003
3.0, -399.84018406271935, 354.92772549483925, -280.9581142212264, -55.93768363725394, -0.04800000227987766, -0.19200000911951065, 0.9600000455975533, 0.0, 0.0, 0.0, 0.0, 0.0, 1.651185535019405E9, 0.0, 2022-04-28 15:38:55.019
3.0, -426.04192315228283, 370.93823720514774, -342.97687518643215, -71.20021535642445, -0.04800000227987766, -0.19200000911951065, 0.9600000455975533, 0.0, 0.0, 0.0, 0.0, 0.0, 1.651185535019405E9, 0.0, 2022-04-28 15:38:55.019
4.0, -555.509779818356, 161.63847608491778, -152.25319714611396, 46.42898799991235, -0.04800000227987766, -0.19200000911951065, 0.9600000455975533, 0.0, 0.0, 0.0, 0.0, 0.0, 1.6511855350200849E9, 0.0, 2022-04-28 15:38:55.020
4.0, -522.6136198081076, 130.63470545224845, -307.1299341111444, 287.2261865469627, -0.04800000227987766, -0.19200000911951065, 0.9600000455975533, 0.0, 0.0, 0.0, 0.0, 0.0, 1.6511855350200849E9, 0.0, 2022-04-28 15:38:55.020
5.0, -376.9968751333654, 176.88604820426553, -203.03916859440506, 448.0418846416287, -0.04800000227987766, -0.19200000911951065, 0.9600000455975533, 0.0, 0.0, 0.0, 0.0, 0.0, 1.6511855350336256E9, 0.0, 2022-04-28 15:38:55.033
5.0, -483.9393143663183, 67.11624460481107, -110.63746038917452, 560.6297028576955, -0.04800000227987766, -0.19200000911951065, 0.9600000455975533, 0.0, 0.0, 0.0, 0.0, 0.0, 1.6511855350336256E9, 0.0, 2022-04-28 15:38:55.033
6.0, -626.5491794766858, 35.585148078389466, 2.176621774211526, 612.9677327875979, -0.04800000227987766, -0.19200000911951065, 0.9600000455975533, 0.0, 0.0, 0.0, 0.0, 0.0, 1.651185535049101E9, 0.0, 2022-04-28 15:38:55.049
6.0, -840.6117031904869, -195.79311243025586, -223.1822697557509, 851.947339956183, -0.04800000227987766, -0.19200000911951065, 0.9600000455975533, 0.0, 0.0, 0.0, 0.0, 0.0, 1.651185535049101E9, 0.0, 2022-04-28 15:38:55.049
7.0, -953.4070858540945, -300.47291219001636, -19.170727172866464, 802.1580518460833, -0.04800000227987766, -0.19200000911951065, 0.9600000455975533, 0.0, 0.0, 0.0, 0.0, 0.0, 1.6511855350643775E9, 0.0, 2022-04-28 15:38:55.064
7.0, -1110.0827146978118, -265.8021696507931, -163.73469001008198, 1022.5784054845572, -0.04800000227987766, -0.19200000911951065, 0.9600000455975533, 0.0, 0.0, 0.0, 0.0, 0.0, 1.6511855350643775E9, 0.0, 2022-04-28 15:38:55.064
8.0, -889.9596831058152, -122.15261235274374, -335.3549590767361, 973.3482324178331, -0.04800000227987766, -0.19200000911951065, 0.9600000455975533, 0.0, 0.0, 0.0, 0.0, 0.0, 1.6511855350651348E9, 0.0, 2022-04-28 15:38:55.065
8.0, -915.5368589027785, -113.61816065385938, -346.8962903399952, 886.5638539460488, -0.04800000227987766, -0.19200000911951065, 0.9600000455975533, 0.0, 0.0, 0.0, 0.0, 0.0, 1.6511855350651348E9, 0.0, 2022-04-28 15:38:55.065
9.0, -1047.5889864382334, -331.8600225681439, -143.3410155517049, 997.1583054857329, -0.04800000227987766, -0.19200000911951065, 0.9600000455975533, 0.0, 0.0, 0.0, 0.0, 0.0, 1.6511855350793424E9, 0.0, 2022-04-28 15:38:55.079
9.0, -1012.3815682553686, -364.00446268729866, -375.4541664016433, 836.9765204335563, -0.04800000227987766, -0.19200000911951065, 0.9600000455975533, 0.0, 0.0, 0.0, 0.0, 0.0, 1.6511855350793424E9, 0.0, 2022-04-28 15:38:55.079
10.0, -863.4138732203282, -306.5633392678574, -202.52680230047554, 916.9318415862508, -0.04800000227987766, -0.19200000911951065, 0.9600000455975533, 0.0, 0.0, 0.0, 0.0, 0.0, 1.6511855350800483E9, 0.0, 2022-04-28 15:38:55.080
10.0, -976.0970588852651, -422.2459246972576, -101.03713720291853, 1022.0099406912923, -0.04800000227987766, -0.19200000911951065, 0.9600000455975533, 0.0, 0.0, 0.0, 0.0, 0.0, 1.6511855350800483E9, 0.0, 2022-04-28 15:38:55.080
11.0, -1116.5901406207122, -414.3229466411285, -33.30754900537431, 1095.1343345749192, -0.04800000227987766, -0.17600000835955143, 0.9600000455975533, 0.0, 0.0, 0.0, 0.0, 0.0, 1.65118553509376E9, 0.0, 2022-04-28 15:38:55.093
11.0, -1325.9815292898566, -211.20524014765397, -204.01528248284012, 852.5887327985838, -0.04800000227987766, -0.17600000835955143, 0.9600000455975533, 0.0, 0.0, 0.0, 0.0, 0.0, 1.65118553509376E9, 0.0, 2022-04-28 15:38:55.093
12.0, -1439.7118869423866, -307.84425500268117, -21.78491724189371, 810.2605451000854, -0.04800000227987766, -0.17600000835955143, 0.9600000455975533, 0.0, 0.0, 0.0, 0.0, 0.0, 1.6511855351094055E9, 0.0, 2022-04-28 15:38:55.109
12.0, -1599.521551948972, -287.0335816992447, -142.6079951603897, 1018.227031886112, -0.04800000227987766, -0.17600000835955143, 0.9600000455975533, 0.0, 0.0, 0.0, 0.0, 0.0, 1.6511855351094055E9, 0.0, 2022-04-28 15:38:55.109
13.0, -1380.9318793388084, -88.87124264705926, -382.58241571718827, 992.9396983357146, -0.04800000227987766, -0.17600000835955143, 0.9600000455975533, 0.0, 0.0, 0.0, 0.0, 0.0, 1.6511855351101153E9, 0.0, 2022-04-28 15:38:55.110
13.0, -1406.0602671410888, -122.2797689512372, -306.66618651663885, 863.7261548666283, -0.04800000227987766, -0.17600000835955143, 0.9600000455975533, 0.0, 0.0, 0.0, 0.0, 0.0, 1.6511855351101153E9, 0.0, 2022-04-28 15:38:55.110
14.0, -1536.2312249988317, -335.10251582972705, -94.31466703256592, 976.66552367853, -0.04800000227987766, -0.17600000835955143, 0.9600000455975533, 0.0, 0.0, 0.0, 0.0, 0.0, 1.6511855351236625E9, 0.0, 2022-04-28 15:38:55.123
14.0, -1498.1964424494654, -327.9705266142264, 55.21588294580579, 880.832457263954, -0.04800000227987766, -0.17600000835955143, 0.9600000455975533, 0.0, 0.0, 0.0, 0.0, 0.0, 1.6511855351236625E9, 0.0, 2022-04-28 15:38:55.123
15.0, -1354.270132554695, -321.9305881857872, -176.3475026106462, 904.711718481034, -0.04800000227987766, -0.17600000835955143, 0.9600000455975533, 0.0, 0.0, 0.0, 0.0, 0.0, 1.6511855351393452E9, 0.0, 2022-04-28 15:38:55.139
15.0, -1463.0862616654485, -432.37357377726585, -74.60352431610227, 1007.9572666077875, -0.04800000227987766, -0.17600000835955143, 0.9600000455975533, 0.0, 0.0, 0.0, 0.0, 0.0, 1.6511855351393452E9, 0.0, 2022-04-28 15:38:55.139
16.0, -1608.0223445482552, -430.9580216440372, -34.10788759589195, 1104.8861237093806, -0.04800000227987766, -0.17600000835955143, 0.9600000455975533, 0.0, 0.0, 0.0, 0.0, 0.0, 1.6511855351400807E9, 0.0, 2022-04-28 15:38:55.140
16.0, -1821.0227366746403, -197.04597891541198, -222.9952747579664, 860.5715492540039, -0.04800000227987766, -0.17600000835955143, 0.9600000455975533, 0.0, 0.0, 0.0, 0.0, 0.0, 1.6511855351400807E9, 0.0, 2022-04-28 15:38:55.140
17.0, -1928.8664917969145, -308.5024773948826, 0.3253712961450219, 807.5061087827198, -0.04800000227987766, -0.17600000835955143, 0.9600000455975533, 0.0, 0.0, 0.0, 0.0, 0.0, 1.6511855351536276E9, 0.0, 2022-04-28 15:38:55.153
17.0, -2092.969561952632, -298.05506686866283, -101.03900715289637, 996.6646386915818, -0.04800000227987766, -0.17600000835955143, 0.9600000455975533, 0.0, 0.0, 0.0, 0.0, 0.0, 1.6511855351536276E9, 0.0, 2022-04-28 15:38:55.153
18.0, -1869.0318324058317, -92.22219300735742, 58.79122730344534, 1023.4385824743658, -0.04800000227987766, -0.17600000835955143, 0.9600000455975533, 0.0, 0.0, 0.0, 0.0, 0.0, 1.6511855351693535E9, 0.0, 2022-04-28 15:38:55.169
18.0, -1898.333948558662, -119.7216773815453, 196.26994967460632, 851.6836770093068, -0.04800000227987766, -0.17600000835955143, 0.9600000455975533, 0.0, 0.0, 0.0, 0.0, 0.0, 1.6511855351693535E9, 0.0, 2022-04-28 15:38:55.169
19.0, -2027.8242446244694, -346.32595559675246, 427.5042240349576, 949.5213298001327, -0.04800000227987766, -0.17600000835955143, 0.9600000455975533, 0.0, 0.0, 0.0, 0.0, 0.0, 1.6511855351700828E9, 0.0, 2022-04-28 15:38:55.170
19.0, -1985.630693324376, -321.8258709870279, 471.03852946916595, 929.0322878928855, -0.04800000227987766, -0.17600000835955143, 0.9600000455975533, 0.0, 0.0, 0.0, 0.0, 0.0, 1.6511855351700828E9, 0.0, 2022-04-28 15:38:55.170
20.0, -1847.3478924627416, -312.3751437989995, 341.8137663002126, 871.3088020267896, -0.04800000227987766, -0.17600000835955143, 0.9760000463575125, 0.0, 0.0, 0.0, 0.0, 0.0, 1.6511855351836572E9, 0.0, 2022-04-28 15:38:55.183
20.0, -1956.9568803641014, -433.26740986667573, 422.8087796405889, 998.205477473326, -0.04800000227987766, -0.17600000835955143, 0.9760000463575125, 0.0, 0.0, 0.0, 0.0, 0.0, 1.6511855351836572E9, 0.0, 2022-04-28 15:38:55.183
21.0, -2096.3018128131516, -419.4877484799363, 424.79840641701594, 1120.150525378529, -0.04800000227987766, -0.17600000835955143, 0.9760000463575125, 0.0, 0.0, 0.0, 0.0, 0.0, 1.65118553519941E9, 0.0, 2022-04-28 15:38:55.199
21.0, -2312.073470806703, -191.38751028245315, 251.76071526715532, 1348.2732029757462, -0.04800000227987766, -0.17600000835955143, 0.9760000463575125, 0.0, 0.0, 0.0, 0.0, 0.0, 1.65118553519941E9, 0.0, 2022-04-28 15:38:55.199
22.0, -2418.398826546967, -307.7544974037446, 15.101716021075845, 1268.7554501178674, -0.04800000227987766, -0.17600000835955143, 0.9760000463575125, 0.0, 0.0, 0.0, 0.0, 0.0, 1.6511855352000723E9, 0.0, 2022-04-28 15:38:55.200
22.0, -2581.387406515889, -299.36777175311, -77.10738733643666, 1470.30426857993, -0.04800000227987766, -0.17600000835955143, 0.9760000463575125, 0.0, 0.0, 0.0, 0.0, 0.0, 1.6511855352000723E9, 0.0, 2022-04-28 15:38:55.200
23.0, -2356.974709674716, -79.63742965646088, 28.63267406076193, 1553.2365500973538, -0.04800000227987766, -0.17600000835955143, 0.9760000463575125, 0.0, 0.0, 0.0, 0.0, 0.0, 1.651185535213649E9, 0.0, 2022-04-28 15:38:55.213
23.0, -2390.5552713768557, -125.62323951162398, 224.2144821435213, 1331.7708944212645, -0.04800000227987766, -0.17600000835955143, 0.9760000463575125, 0.0, 0.0, 0.0, 0.0, 0.0, 1.651185535213649E9, 0.0, 2022-04-28 15:38:55.213
24.0, -2518.0260214665905, -356.5321425758302, -15.780507863033563, 1417.2481778585352, -0.04800000227987766, -0.17600000835955143, 0.9760000463575125, 0.0, 0.0, 0.0, 0.0, 0.0, 1.6511855352293844E9, 0.0, 2022-04-28 15:38:55.229
24.0, -2474.9685532767326, -315.72983405925333, -57.125101873185486, 1467.9500015578233, -0.04800000227987766, -0.17600000835955143, 0.9760000463575125, 0.0, 0.0, 0.0, 0.0, 0.0, 1.6511855352293844E9, 0.0, 2022-04-28 15:38:55.229
25.0, -2337.8787805009633, -318.5029698763974, -127.55489783873782, 1356.1176431328058, -0.04800000227987766, -0.17600000835955143, 0.9760000463575125, 0.0, 0.0, 0.0, 0.0, 0.0, 1.6511855352300787E9, 0.0, 2022-04-28 15:38:55.230
25.0, -2445.4083840269595, -441.17916822293773, -45.63612920930609, 1467.7031681607477, -0.04800000227987766, -0.17600000835955143, 0.9760000463575125, 0.0, 0.0, 0.0, 0.0, 0.0, 1.6511855352300787E9, 0.0, 2022-04-28 15:38:55.230
26.0, -2585.269422669895, -425.84744835458696, -65.67638312187046, 1629.3098550960422, -0.04800000227987766, -0.17600000835955143, 0.9760000463575125, 0.0, 0.0, 0.0, 0.0, 0.0, 1.6511855352436647E9, 0.0, 2022-04-28 15:38:55.243
26.0, -2797.3834585067816, -191.98776422534138, -243.38894921634346, 1851.7591044604778, -0.04800000227987766, -0.17600000835955143, 0.9760000463575125, 0.0, 0.0, 0.0, 0.0, 0.0, 1.6511855352436647E9, 0.0, 2022-04-28 15:38:55.243
27.0, -2911.5850435537286, -312.83889139350504, -465.70543213235214, 1755.6174962995574, -0.04800000227987766, -0.17600000835955143, 0.9760000463575125, 0.0, 0.0, 0.0, 0.0, 0.0, 1.6511855352593584E9, 0.0, 2022-04-28 15:38:55.259
27.0, -3070.164281474892, -283.2955516935326, -563.1616151276976, 1950.1988811441697, -0.04800000227987766, -0.17600000835955143, 0.9760000463575125, 0.0, 0.0, 0.0, 0.0, 0.0, 1.6511855352593584E9, 0.0, 2022-04-28 15:38:55.259
28.0, -2842.0116846780293, -58.377968358341604, -518.5502185062505, 2059.1720860530622, -0.04800000227987766, -0.17600000835955143, 0.9760000463575125, 0.0, 0.0, 0.0, 0.0, 0.0, 1.65118553526007E9, 0.0, 2022-04-28 15:38:55.260
28.0, -2877.7576484545134, -142.61921486025676, -716.5872709099203, 2285.288307324052, -0.04800000227987766, -0.17600000835955143, 0.9760000463575125, 0.0, 0.0, 0.0, 0.0, 0.0, 1.65118553526007E9, 0.0, 2022-04-28 15:38:55.260
29.0, -3011.174839473795, -373.65153462300077, -945.4597984482534, 2352.5186188775115, -0.04800000227987766, -0.17600000835955143, 0.9760000463575125, 0.0, 0.0, 0.0, 0.0, 0.0, 1.6511855352736478E9, 0.0, 2022-04-28 15:38:55.273
29.0, -2964.672923424747, -352.2219078768976, -1070.7688863635994, 2516.6403885330074, -0.04800000227987766, -0.17600000835955143, 0.9760000463575125, 0.0, 0.0, 0.0, 0.0, 0.0, 1.6511855352736478E9, 0.0, 2022-04-28 15:38:55.273
30.0, -2824.6922079832293, -307.1336740111001, -1111.6684322790243, 2321.094109499827, -0.04800000227987766, -0.17600000835955143, 0.9600000455975533, 0.0, 0.0, 0.0, 0.0, 0.0, 1.6511855352893384E9, 0.0, 2022-04-28 15:38:55.289
30.0, -2938.5048434347846, -436.5903109773062, -996.1765817473643, 2444.486498687882, -0.04800000227987766, -0.17600000835955143, 0.9600000455975533, 0.0, 0.0, 0.0, 0.0, 0.0, 1.6511855352893384E9, 0.0, 2022-04-28 15:38:55.289
31.0, -3080.1236350568943, -466.0195837286301, -1040.3279706742615, 2624.4860136052594, -0.04800000227987766, -0.19200000911951065, 0.9600000455975533, 0.0, 0.0, 0.0, 0.0, 0.0, 1.6511855352900908E9, 0.0, 2022-04-28 15:38:55.290
31.0, -3288.2023188415915, -658.6375210965052, -1264.4938341183588, 2848.083412256092, -0.04800000227987766, -0.19200000911951065, 0.9600000455975533, 0.0, 0.0, 0.0, 0.0, 0.0, 1.6511855352900908E9, 0.0, 2022-04-28 15:38:55.290
32.0, -3400.092645715922, -792.6044774092734, -1461.8240454304032, 2729.681919558905, -0.04800000227987766, -0.19200000911951065, 0.9600000455975533, 0.0, 0.0, 0.0, 0.0, 0.0, 1.6511855353036845E9, 0.0, 2022-04-28 15:38:55.303
32.0, -3568.5863584196195, -817.8076632106677, -1495.0848456863314, 2941.5453820987605, -0.04800000227987766, -0.19200000911951065, 0.9600000455975533, 0.0, 0.0, 0.0, 0.0, 0.0, 1.6511855353036845E9, 0.0, 2022-04-28 15:38:55.303
33.0, -3334.9248889880255, -1035.8045616778545, -1567.4481699289754, 3098.8530540349893, -0.04800000227987766, -0.19200000911951065, 0.9600000455975533, 0.0, 0.0, 0.0, 0.0, 0.0, 1.6511855353196254E9, 0.0, 2022-04-28 15:38:55.319
33.0, -3370.749390663579, -1105.1797058559023, -1705.100797648076, 3239.520041118376, -0.04800000227987766, -0.19200000911951065, 0.9600000455975533, 0.0, 0.0, 0.0, 0.0, 0.0, 1.6511855353196254E9, 0.0, 2022-04-28 15:38:55.319
34.0, -3501.1410026187077, -1341.848054851871, -1922.5703702215105, 3310.65106832562, -0.04800000227987766, -0.19200000911951065, 0.9600000455975533, 0.0, 0.0, 0.0, 0.0, 0.0, 1.6511855353200772E9, 0.0, 2022-04-28 15:38:55.320
34.0, -3454.3959930725396, -1289.444576672744, -2139.521966651082, 3539.547905213665, -0.04800000227987766, -0.19200000911951065, 0.9600000455975533, 0.0, 0.0, 0.0, 0.0, 0.0, 1.6511855353200772E9, 0.0, 2022-04-28 15:38:55.320
35.0, -3318.5104680825025, -1296.1520872432739, -2056.797249581199, 3779.3241110728122, -0.04800000227987766, -0.19200000911951065, 0.9600000455975533, 0.0, 0.0, 0.0, 0.0, 0.0, 1.651185535333664E9, 0.0, 2022-04-28 15:38:55.333
35.0, -3427.0535844964907, -1421.8127257544547, -1960.1395352263935, 3896.134276338853, -0.04800000227987766, -0.19200000911951065, 0.9600000455975533, 0.0, 0.0, 0.0, 0.0, 0.0, 1.651185535333664E9, 0.0, 2022-04-28 15:38:55.333
36.0, -3568.1899290243164, -1467.7312174104154, -2023.5027902256697, 3654.61901700031, -0.04800000227987766, -0.19200000911951065, 0.9600000455975533, 0.0, 0.0, 0.0, 0.0, 0.0, 1.6511855353493445E9, 0.0, 2022-04-28 15:38:55.349
36.0, -3776.1489360104315, -1621.2260613418184, -1797.6670614513569, 3846.4721448272467, -0.04800000227987766, -0.19200000911951065, 0.9600000455975533, 0.0, 0.0, 0.0, 0.0, 0.0, 1.6511855353493445E9, 0.0, 2022-04-28 15:38:55.349
37.0, -3889.307088969741, -1768.3238063990138, -1935.951732262969, 3702.100786837749, -0.04800000227987766, -0.19200000911951065, 0.9600000455975533, 0.0, 0.0, 0.0, 0.0, 0.0, 1.651185535350084E9, 0.0, 2022-04-28 15:38:55.350
37.0, -4053.5410556239076, -1773.3577117393725, -2008.182290057186, 3886.868674198631, -0.04800000227987766, -0.19200000911951065, 0.9600000455975533, 0.0, 0.0, 0.0, 0.0, 0.0, 1.651185535350084E9, 0.0, 2022-04-28 15:38:55.350
38.0, -3821.4129451741464, -2004.7284924481064, -2083.515094864648, 4095.4391548275016, -0.04800000227987766, -0.19200000911951065, 0.9600000455975533, 0.0, 0.0, 0.0, 0.0, 0.0, 1.6511855353636603E9, 0.0, 2022-04-28 15:38:55.363
38.0, -3864.44797396427, -2097.0142637547106, -2165.5554102426395, 4217.429081532173, -0.04800000227987766, -0.19200000911951065, 0.9600000455975533, 0.0, 0.0, 0.0, 0.0, 0.0, 1.6511855353636603E9, 0.0, 2022-04-28 15:38:55.363
39.0, -3988.698670192156, -2338.8287150897086, -2374.355894718785, 4268.072936782148, -0.04800000227987766, -0.19200000911951065, 0.9600000455975533, 0.0, 0.0, 0.0, 0.0, 0.0, 1.6511855353793619E9, 0.0, 2022-04-28 15:38:55.379
39.0, -3940.9700669576414, -2285.4715624218807, -2189.995656453073, 4086.439085584134, -0.04800000227987766, -0.19200000911951065, 0.9600000455975533, 0.0, 0.0, 0.0, 0.0, 0.0, 1.6511855353793619E9, 0.0, 2022-04-28 15:38:55.379
40.0, -3811.169359195512, -2267.856633630581, -2056.01561049046, 4248.904079559259, -0.04800000227987766, -0.19200000911951065, 0.9600000455975533, 0.0, 0.0, 0.0, 0.0, 0.0, 1.651185535380083E9, 0.0, 2022-04-28 15:38:55.380
40.0, -3918.265134326648, -2401.1354483515024, -1948.6318630627356, 4362.0154837691225, -0.04800000227987766, -0.19200000911951065, 0.9600000455975533, 0.0, 0.0, 0.0, 0.0, 0.0, 1.651185535380083E9, 0.0, 2022-04-28 15:38:55.380
41.0, -4056.648912487086, -2399.0130551266484, -2075.820250705816, 4127.677092445549, -0.04800000227987766, -0.17600000835955143, 0.9600000455975533, 0.0, 0.0, 0.0, 0.0, 0.0, 1.651185535393684E9, 0.0, 2022-04-28 15:38:55.393
41.0, -4266.021601656452, -2618.461034776643, -2265.160165762529, 4334.429981695954, -0.04800000227987766, -0.17600000835955143, 0.9600000455975533, 0.0, 0.0, 0.0, 0.0, 0.0, 1.651185535393684E9, 0.0, 2022-04-28 15:38:55.393
42.0, -4381.685487586074, -2759.9339703004807, -2415.1843825350516, 4201.009050776716, -0.06400000303983688, -0.17600000835955143, 0.9600000455975533, 0.0, 0.0, 0.0, 0.0, 0.0, 1.6511855354093852E9, 0.0, 2022-04-28 15:38:55.409
42.0, -4540.163748208433, -2736.9990338222124, -2471.632562516257, 4360.5438331365585, -0.06400000303983688, -0.17600000835955143, 0.9600000455975533, 0.0, 0.0, 0.0, 0.0, 0.0, 1.6511855354093852E9, 0.0, 2022-04-28 15:38:55.409
43.0, -4310.343156031333, -2965.6808264628053, -2608.8420120906085, 4122.923679601867, -0.06400000303983688, -0.17600000835955143, 0.9600000455975533, 0.0, 0.0, 0.0, 0.0, 0.0, 1.6511855354101105E9, 0.0, 2022-04-28 15:38:55.410
43.0, -4354.735768505372, -3094.8981098318473, -2614.8352017696016, 4192.240855330601, -0.06400000303983688, -0.17600000835955143, 0.9600000455975533, 0.0, 0.0, 0.0, 0.0, 0.0, 1.6511855354101105E9, 0.0, 2022-04-28 15:38:55.410
44.0, -4484.74591066502, -3334.9697677874938, -2802.8493222920224, 4246.216961441096, -0.06400000303983688, -0.17600000835955143, 0.9600000455975533, 0.0, 0.0, 0.0, 0.0, 0.0, 1.6511855354237936E9, 0.0, 2022-04-28 15:38:55.423
44.0, -4429.552467118949, -3238.300833732821, -2753.7986644231714, 4144.4785929964855, -0.06400000303983688, -0.17600000835955143, 0.9600000455975533, 0.0, 0.0, 0.0, 0.0, 0.0, 1.6511855354237936E9, 0.0, 2022-04-28 15:38:55.423
45.0, -4299.572244158946, -3263.677924882155, -2993.4925924832933, 4227.552990712225, -0.06400000303983688, -0.17600000835955143, 0.9600000455975533, 0.0, 0.0, 0.0, 0.0, 0.0, 1.6511855354394128E9, 0.0, 2022-04-28 15:38:55.439
45.0, -4407.079408285208, -3391.604942766484, -2895.372577245813, 4346.82401014911, -0.06400000303983688, -0.17600000835955143, 0.9600000455975533, 0.0, 0.0, 0.0, 0.0, 0.0, 1.6511855354394128E9, 0.0, 2022-04-28 15:38:55.439
46.0, -4543.757792065851, -3406.4224263909273, -3044.824589325115, 4140.000062799547, -0.06400000303983688, -0.17600000835955143, 0.9600000455975533, 0.0, 0.0, 0.0, 0.0, 0.0, 1.6511855354400811E9, 0.0, 2022-04-28 15:38:55.440
46.0, -4752.6218548412435, -3585.7487593162805, -3263.556378133595, 4345.429027465638, -0.06400000303983688, -0.17600000835955143, 0.9600000455975533, 0.0, 0.0, 0.0, 0.0, 0.0, 1.6511855354400811E9, 0.0, 2022-04-28 15:38:55.440
47.0, -4872.309873123188, -3735.887043037452, -3388.7887980998494, 4171.950028121006, -0.06400000303983688, -0.17600000835955143, 0.9600000455975533, 0.0, 0.0, 0.0, 0.0, 0.0, 1.6511855354536617E9, 0.0, 2022-04-28 15:38:55.453
47.0, -5036.042693183292, -3724.88612731779, -3430.729906152934, 4322.699785484932, -0.06400000303983688, -0.17600000835955143, 0.9600000455975533, 0.0, 0.0, 0.0, 0.0, 0.0, 1.6511855354536617E9, 0.0, 2022-04-28 15:38:55.453
48.0, -4806.427795503754, -3931.0200631255284, -3632.9649962568656, 4156.302286706399, -0.06400000303983688, -0.17600000835955143, 0.9600000455975533, 0.0, 0.0, 0.0, 0.0, 0.0, 1.651185535469124E9, 0.0, 2022-04-28 15:38:55.469
48.0, -4844.645833150949, -4077.9532525846735, -3546.3002945836633, 4156.186349807773, -0.06400000303983688, -0.17600000835955143, 0.9600000455975533, 0.0, 0.0, 0.0, 0.0, 0.0, 1.651185535469124E9, 0.0, 2022-04-28 15:38:55.469
49.0, -4977.416021477897, -4319.487211422995, -3745.9642034680583, 4199.331705646589, -0.06400000303983688, -0.17600000835955143, 0.9600000455975533, 0.0, 0.0, 0.0, 0.0, 0.0, 1.651185535484318E9, 0.0, 2022-04-28 15:38:55.484
49.0, -4915.28506351402, -4247.153806379996, -3761.668043382, 4198.828689102549, -0.06400000303983688, -0.17600000835955143, 0.9600000455975533, 0.0, 0.0, 0.0, 0.0, 0.0, 1.651185535484318E9, 0.0, 2022-04-28 15:38:55.484
50.0, -4786.602585838642, -4232.085749458522, -3974.3785932618193, 4212.1389930448495, -0.06400000303983688, -0.17600000835955143, 0.9600000455975533, 0.0, 0.0, 0.0, 0.0, 0.0, 1.651185535485059E9, 0.0, 2022-04-28 15:38:55.485
50.0, -4899.39796850225, -4374.100970475934, -3880.3163694762625, 4328.343294518068, -0.06400000303983688, -0.17600000835955143, 0.9600000455975533, 0.0, 0.0, 0.0, 0.0, 0.0, 1.651185535485059E9, 0.0, 2022-04-28 15:38:55.485
51.0, -5034.83844539756, -4320.753167557996, -4087.47503787186, 4155.219585669227, -0.06400000303983688, -0.17600000835955143, 0.9600000455975533, 0.0, 0.0, 0.0, 0.0, 0.0, 1.6511855354993446E9, 0.0, 2022-04-28 15:38:55.499
51.0, -5248.160468920134, -4089.4814941980876, -4212.185741794296, 4335.34438723512, -0.06400000303983688, -0.17600000835955143, 0.9600000455975533, 0.0, 0.0, 0.0, 0.0, 0.0, 1.6511855354993446E9, 0.0, 2022-04-28 15:38:55.499
52.0, -5362.040422570892, -4238.303333134856, -4340.488619624171, 4164.976984653622, -0.04800000227987766, -0.17600000835955143, 0.9600000455975533, 0.0, 0.0, 0.0, 0.0, 0.0, 1.6511855355000515E9, 0.0, 2022-04-28 15:38:55.500
52.0, -5526.551141821779, -4302.80538767064, -4330.727480739821, 4345.889035160188, -0.04800000227987766, -0.17600000835955143, 0.9600000455975533, 0.0, 0.0, 0.0, 0.0, 0.0, 1.6511855355000515E9, 0.0, 2022-04-28 15:38:55.500
53.0, -5291.610626605339, -4418.299108152278, -4195.273914194666, 4219.474806807935, -0.04800000227987766, -0.17600000835955143, 0.9600000455975533, 0.0, 0.0, 0.0, 0.0, 0.0, 1.651185535513656E9, 0.0, 2022-04-28 15:38:55.513
53.0, -5337.020491867326, -4547.714606218971, -4063.8164307521656, 4152.444579902105, -0.04800000227987766, -0.17600000835955143, 0.9600000455975533, 0.0, 0.0, 0.0, 0.0, 0.0, 1.651185535513656E9, 0.0, 2022-04-28 15:38:55.513
54.0, -5466.828679429367, -4321.774160245899, -4217.924618276302, 4166.8749838811345, -0.04800000227987766, -0.17600000835955143, 0.9600000455975533, 0.0, 0.0, 0.0, 0.0, 0.0, 1.6511855355293796E9, 0.0, 2022-04-28 15:38:55.529
54.0, -5407.169795336202, -4177.15222895937, -4349.6438947157, 4221.6420788322575, -0.04800000227987766, -0.17600000835955143, 0.9600000455975533, 0.0, 0.0, 0.0, 0.0, 0.0, 1.6511855355293796E9, 0.0, 2022-04-28 15:38:55.529
55.0, -5283.6483795996755, -4247.183725579642, -4428.297730683815, 4187.412644487806, -0.04800000227987766, -0.17600000835955143, 0.9600000455975533, 0.0, 0.0, 0.0, 0.0, 0.0, 1.651185535530059E9, 0.0, 2022-04-28 15:38:55.530
55.0, -5391.503354421817, -4378.110143228434, -4320.745687758084, 4297.9622172280215, -0.04800000227987766, -0.17600000835955143, 0.9600000455975533, 0.0, 0.0, 0.0, 0.0, 0.0, 1.651185535530059E9, 0.0, 2022-04-28 15:38:55.530
56.0, -5524.363300347701, -4358.870227906387, -4077.5399936395697, 4166.800185882021, -0.04800000227987766, -0.17600000835955143, 0.9600000455975533, 0.0, 0.0, 0.0, 0.0, 0.0, 1.651185535543668E9, 0.0, 2022-04-28 15:38:55.543
56.0, -5737.685323870275, -4565.187418811955, -4246.714368135203, 4345.081216769759, -0.04800000227987766, -0.17600000835955143, 0.9600000455975533, 0.0, 0.0, 0.0, 0.0, 0.0, 1.651185535543668E9, 0.0, 2022-04-28 15:38:55.543
57.0, -5855.866162470076, -4722.712004945613, -4355.801639992744, 4158.2283351835795, -0.04800000227987766, -0.17600000835955143, 0.9600000455975533, 0.0, 0.0, 0.0, 0.0, 0.0, 1.6511855355593512E9, 0.0, 2022-04-28 15:38:55.559
57.0, -6021.203399611171, -4762.085671679117, -4339.387219087221, 4318.002471140586, -0.04800000227987766, -0.17600000835955143, 0.9600000455975533, 0.0, 0.0, 0.0, 0.0, 0.0, 1.6511855355593512E9, 0.0, 2022-04-28 15:38:55.559
58.0, -5781.543130650651, -4908.807556790765, -4223.2951146126725, 4239.114891425241, -0.04800000227987766, -0.17600000835955143, 0.9600000455975533, 0.0, 0.0, 0.0, 0.0, 0.0, 1.6511855355600595E9, 0.0, 2022-04-28 15:38:55.560
58.0, -5830.468501870986, -5048.425501936581, -4030.1367617012, 4140.662025091704, -0.04800000227987766, -0.17600000835955143, 0.9600000455975533, 0.0, 0.0, 0.0, 0.0, 0.0, 1.6511855355600595E9, 0.0, 2022-04-28 15:38:55.560
59.0, -5961.032149224076, -4825.09550613258, -4171.503110076301, 4158.305003132671, -0.04800000227987766, -0.17600000835955143, 0.9600000455975533, 0.0, 0.0, 0.0, 0.0, 0.0, 1.6511855355736847E9, 0.0, 2022-04-28 15:38:55.573
59.0, -5898.100852669682, -4710.568549789488, -4374.639516069554, 4311.637161416002, -0.04800000227987766, -0.17600000835955143, 0.9600000455975533, 0.0, 0.0, 0.0, 0.0, 0.0, 1.6511855355736847E9, 0.0, 2022-04-28 15:38:55.573
60.0, -5772.103623162489, -4718.1885959492065, -4428.628711829893, 4169.717307847459, -0.04800000227987766, -0.17600000835955143, 0.9760000463575125, 0.0, 0.0, 0.0, 0.0, 0.0, 1.651185535589331E9, 0.0, 2022-04-28 15:38:55.589
60.0, -5878.731910799164, -4865.458376404364, -4320.265110613778, 4299.130935964175, -0.04800000227987766, -0.17600000835955143, 0.9760000463575125, 0.0, 0.0, 0.0, 0.0, 0.0, 1.651185535589331E9, 0.0, 2022-04-28 15:38:55.589
61.0, -6014.752072187606, -4823.76784164831, -4101.3500667074695, 4190.430743752047, -0.04800000227987766, -0.17600000835955143, 0.9760000463575125, 0.0, 0.0, 0.0, 0.0, 0.0, 1.651185535590065E9, 0.0, 2022-04-28 15:38:55.590
61.0, -6229.26338389609, -5058.90844151238, -4259.2710822364315, 4346.388311804272, -0.04800000227987766, -0.17600000835955143, 0.9760000463575125, 0.0, 0.0, 0.0, 0.0, 0.0, 1.651185535590065E9, 0.0, 2022-04-28 15:38:55.590
62.0, -6345.551833118312, -5221.597829484846, -4346.281724655535, 4151.472205913626, -0.04800000227987766, -0.17600000835955143, 0.9760000463575125, 0.0, 0.0, 0.0, 0.0, 0.0, 1.6511855356036694E9, 0.0, 2022-04-28 15:38:55.603
62.0, -6508.970501582138, -5269.229195320513, -4309.802740487736, 4310.479662379716, -0.04800000227987766, -0.17600000835955143, 0.9760000463575125, 0.0, 0.0, 0.0, 0.0, 0.0, 1.6511855356036694E9, 0.0, 2022-04-28 15:38:55.603
63.0, -6268.633310729638, -5376.622292498127, -4270.4159841043875, 4268.168304231018, -0.04800000227987766, -0.17600000835955143, 0.9760000463575125, 0.0, 0.0, 0.0, 0.0, 0.0, 1.6511855356197693E9, 0.0, 2022-04-28 15:38:55.619
63.0, -6318.560975138098, -5539.061107173562, -4488.237107273657, 4114.297600354068, -0.04800000227987766, -0.17600000835955143, 0.9760000463575125, 0.0, 0.0, 0.0, 0.0, 0.0, 1.6511855356197693E9, 0.0, 2022-04-28 15:38:55.619
64.0, -6452.827123447321, -5314.725078281481, -4625.186633801088, 4125.878200566862, -0.04800000227987766, -0.17600000835955143, 0.9760000463575125, 0.0, 0.0, 0.0, 0.0, 0.0, 1.6511855356343093E9, 0.0, 2022-04-28 15:38:55.634
64.0, -6385.161113549024, -5209.61145012686, -4433.810343218502, 3880.8829643195495, -0.04800000227987766, -0.17600000835955143, 0.9760000463575125, 0.0, 0.0, 0.0, 0.0, 0.0, 1.6511855356343093E9, 0.0, 2022-04-28 15:38:55.634
65.0, -6265.185122970492, -5211.35611345619, -4402.838361735456, 3655.3987861410715, -0.04800000227987766, -0.17600000835955143, 0.9760000463575125, 0.0, 0.0, 0.0, 0.0, 0.0, 1.6511855356350372E9, 0.0, 2022-04-28 15:38:55.635
65.0, -6371.970486405306, -5356.2173983398825, -4312.344002507627, 3792.49790866673, -0.04800000227987766, -0.17600000835955143, 0.9760000463575125, 0.0, 0.0, 0.0, 0.0, 0.0, 1.6511855356350372E9, 0.0, 2022-04-28 15:38:55.635
66.0, -6502.223722062074, -5251.333774032537, -4161.5774155939, 3696.158085808158, -0.04800000227987766, -0.17600000835955143, 0.9760000463575125, 0.0, 0.0, 0.0, 0.0, 0.0, 1.6511855356493669E9, 0.0, 2022-04-28 15:38:55.649
66.0, -6720.886322721373, -5085.592627696227, -4227.73998571001, 3859.202764276415, -0.04800000227987766, -0.17600000835955143, 0.9760000463575125, 0.0, 0.0, 0.0, 0.0, 0.0, 1.6511855356493669E9, 0.0, 2022-04-28 15:38:55.649
67.0, -6835.050508768763, -5227.925740209874, -4335.559431482572, 3655.064065095037, -0.04800000227987766, -0.17600000835955143, 0.9760000463575125, 0.0, 0.0, 0.0, 0.0, 0.0, 1.6511855356500313E9, 0.0, 2022-04-28 15:38:55.650
67.0, -7000.458804009017, -5280.157182991039, -4277.617161469068, 3797.0026181633584, -0.04800000227987766, -0.17600000835955143, 0.9760000463575125, 0.0, 0.0, 0.0, 0.0, 0.0, 1.6511855356500313E9, 0.0, 2022-04-28 15:38:55.650
68.0, -6760.585360751022, -5399.832111623138, -4311.515614667442, 3825.3435800275765, -0.04800000227987766, -0.17600000835955143, 0.9760000463575125, 0.0, 0.0, 0.0, 0.0, 0.0, 1.6511855356636724E9, 0.0, 2022-04-28 15:38:55.663
68.0, -6806.27197860973, -5532.684577749111, -4495.969350432046, 3616.447728102561, -0.04800000227987766, -0.17600000835955143, 0.9760000463575125, 0.0, 0.0, 0.0, 0.0, 0.0, 1.6511855356636724E9, 0.0, 2022-04-28 15:38:55.663
69.0, -6942.482874895912, -5319.134420329239, -4578.862362999935, 3606.2527608233504, -0.04800000227987766, -0.17600000835955143, 0.9760000463575125, 0.0, 0.0, 0.0, 0.0, 0.0, 1.6511855356793325E9, 0.0, 2022-04-28 15:38:55.679
69.0, -6870.882490244228, -5137.9811462755315, -4520.622770939954, 3410.7588403895497, -0.04800000227987766, -0.17600000835955143, 0.9760000463575125, 0.0, 0.0, 0.0, 0.0, 0.0, 1.6511855356793325E9, 0.0, 2022-04-28 15:38:55.679
70.0, -6755.117627015803, -5234.55845278129, -4348.405987830367, 3643.586312131025, -0.04800000227987766, -0.17600000835955143, 0.9760000463575125, 0.0, 0.0, 0.0, 0.0, 0.0, 1.651185535680054E9, 0.0, 2022-04-28 15:38:55.680
70.0, -6861.342005457263, -5366.049595323391, -4259.665641681757, 3754.300440469291, -0.04800000227987766, -0.17600000835955143, 0.9760000463575125, 0.0, 0.0, 0.0, 0.0, 0.0, 1.651185535680054E9, 0.0, 2022-04-28 15:38:55.680
71.0, -6989.14934654301, -5327.287402232643, -4135.089574157726, 3723.9885513284244, -0.04800000227987766, -0.17600000835955143, 0.9760000463575125, 0.0, 0.0, 0.0, 0.0, 0.0, 1.6511855356936748E9, 0.0, 2022-04-28 15:38:55.693
71.0, -7207.86430580169, -5544.2296489123255, -4261.726326557342, 3882.795923146885, -0.04800000227987766, -0.17600000835955143, 0.9760000463575125, 0.0, 0.0, 0.0, 0.0, 0.0, 1.6511855356936748E9, 0.0, 2022-04-28 15:38:55.693
72.0, -7323.965760026127, -5706.58244588878, -4322.942878982052, 3640.304549919907, -0.04800000227987766, -0.17600000835955143, 0.9760000463575125, 0.0, 0.0, 0.0, 0.0, 0.0, 1.6511855357093215E9, 0.0, 2022-04-28 15:38:55.709
72.0, -7487.133855192922, -5746.053350021131, -4301.214060239494, 3774.0714215850458, -0.04800000227987766, -0.17600000835955143, 0.9760000463575125, 0.0, 0.0, 0.0, 0.0, 0.0, 1.6511855357093215E9, 0.0, 2022-04-28 15:38:55.709
73.0, -7246.976179538295, -5876.431872326415, -4353.568919719197, 3842.6013483731076, -0.04800000227987766, -0.17600000835955143, 0.9760000463575125, 0.0, 0.0, 0.0, 0.0, 0.0, 1.6511855357100625E9, 0.0, 2022-04-28 15:38:55.710
73.0, -7297.487268339843, -6039.835581190418, -4462.50659557851, 4083.88286396442, -0.04800000227987766, -0.17600000835955143, 0.9760000463575125, 0.0, 0.0, 0.0, 0.0, 0.0, 1.6511855357100625E9, 0.0, 2022-04-28 15:38:55.710
74.0, -7431.536502451636, -5812.376735835336, -4557.558022902347, 4064.7831948907115, -0.04800000227987766, -0.17600000835955143, 0.9760000463575125, 0.0, 0.0, 0.0, 0.0, 0.0, 1.6511855357236946E9, 0.0, 2022-04-28 15:38:55.723
74.0, -7355.6202732510865, -5622.251441787928, -4583.524148294702, 3934.2999553866684, -0.04800000227987766, -0.17600000835955143, 0.9760000463575125, 0.0, 0.0, 0.0, 0.0, 0.0, 1.6511855357236946E9, 0.0, 2022-04-28 15:38:55.723
75.0, -7249.384675109759, -5732.011895637494, -4818.872312606312, 4105.938923953101, -0.04800000227987766, -0.17600000835955143, 0.9760000463575125, 0.0, 0.0, 0.0, 0.0, 0.0, 1.6511855357393072E9, 0.0, 2022-04-28 15:38:55.739
75.0, -7355.085467557423, -5862.568063190673, -4727.457937989384, 4231.837046111468, -0.04800000227987766, -0.17600000835955143, 0.9760000463575125, 0.0, 0.0, 0.0, 0.0, 0.0, 1.6511855357393072E9, 0.0, 2022-04-28 15:38:55.739
76.0, -7483.573470435105, -5823.633834701963, -4646.077714953572, 4259.050428139046, -0.04800000227987766, -0.17600000835955143, 0.9760000463575125, 0.0, 0.0, 0.0, 0.0, 0.0, 1.6511855357400827E9, 0.0, 2022-04-28 15:38:55.740
76.0, -7699.004797532689, -6032.625054075848, -4781.017045254819, 4379.19845411554, -0.04800000227987766, -0.17600000835955143, 0.9760000463575125, 0.0, 0.0, 0.0, 0.0, 0.0, 1.6511855357400827E9, 0.0, 2022-04-28 15:38:55.740
77.0, -7811.695462997537, -6197.969771016855, -4801.079738567118, 4135.794545299374, -0.04800000227987766, -0.17600000835955143, 0.9760000463575125, 0.0, 0.0, 0.0, 0.0, 0.0, 1.6511855357536657E9, 0.0, 2022-04-28 15:38:55.753
77.0, -7980.349991399329, -6233.483860996086, -4751.230612057727, 4251.269566281233, -0.04800000227987766, -0.17600000835955143, 0.9760000463575125, 0.0, 0.0, 0.0, 0.0, 0.0, 1.6511855357536657E9, 0.0, 2022-04-28 15:38:55.753
78.0, -7736.250461191405, -6359.647516051307, -4851.897499165032, 4369.386826581787, -0.04800000227987766, -0.17600000835955143, 0.9760000463575125, 0.0, 0.0, 0.0, 0.0, 0.0, 1.651185535769322E9, 0.0, 2022-04-28 15:38:55.769
78.0, -7787.487090584356, -6534.906707774848, -4942.0571373468265, 4551.910773969255, -0.04800000227987766, -0.17600000835955143, 0.9760000463575125, 0.0, 0.0, 0.0, 0.0, 0.0, 1.651185535769322E9, 0.0, 2022-04-28 15:38:55.769
79.0, -7921.566243895795, -6307.541359918658, -5022.313520445954, 4529.314298436977, -0.04800000227987766, -0.17600000835955143, 0.9760000463575125, 0.0, 0.0, 0.0, 0.0, 0.0, 1.651185535770005E9, 0.0, 2022-04-28 15:38:55.770
79.0, -7847.587282872293, -6548.228231417015, -5146.5081181745045, 4449.364587134216, -0.04800000227987766, -0.17600000835955143, 0.9760000463575125, 0.0, 0.0, 0.0, 0.0, 0.0, 1.651185535770005E9, 0.0, 2022-04-28 15:38:55.770
80.0, -7741.392823630478, -6736.10023574112, -5272.434289582539, 4581.252159071621, -0.04800000227987766, -0.17600000835955143, 0.9760000463575125, 0.0, 0.0, 0.0, 0.0, 0.0, 1.651185535783739E9, 0.0, 2022-04-28 15:38:55.783
80.0, -7848.540957360994, -6854.340912740212, -5176.479676419403, 4699.73779951781, -0.04800000227987766, -0.17600000835955143, 0.9760000463575125, 0.0, 0.0, 0.0, 0.0, 0.0, 1.651185535783739E9, 0.0, 2022-04-28 15:38:55.783
81.0, -7969.990468522068, -6745.814625876024, -5170.2003843938, 4718.899176940788, -0.04800000227987766, -0.17600000835955143, 0.9760000463575125, 0.0, 0.0, 0.0, 0.0, 0.0, 1.6511855357993653E9, 0.0, 2022-04-28 15:38:55.799
81.0, -8190.493099959567, -6554.084914747626, -5229.821869487409, 4855.424224823248, -0.04800000227987766, -0.17600000835955143, 0.9760000463575125, 0.0, 0.0, 0.0, 0.0, 0.0, 1.6511855357993653E9, 0.0, 2022-04-28 15:38:55.799
82.0, -8306.358940486796, -6700.146707517095, -5264.006425032392, 4615.838753861841, -0.06400000303983688, -0.17600000835955143, 0.9760000463575125, 0.0, 0.0, 0.0, 0.0, 0.0, 1.6511855358000677E9, 0.0, 2022-04-28 15:38:55.800
82.0, -8472.53017531801, -6804.916264875792, -5171.526178928092, 4740.225956438109, -0.06400000303983688, -0.17600000835955143, 0.9760000463575125, 0.0, 0.0, 0.0, 0.0, 0.0, 1.6511855358000677E9, 0.0, 2022-04-28 15:38:55.800
83.0, -8715.902294984553, -6836.232317154761, -4950.87021159241, 4904.938630286604, -0.06400000303983688, -0.17600000835955143, 0.9760000463575125, 0.0, 0.0, 0.0, 0.0, 0.0, 1.651185535813655E9, 0.0, 2022-04-28 15:38:55.813
83.0, -8765.474668897223, -7010.934263784904, -4932.036075415555, 5038.368910955731, -0.06400000303983688, -0.17600000835955143, 0.9760000463575125, 0.0, 0.0, 0.0, 0.0, 0.0, 1.651185535813655E9, 0.0, 2022-04-28 15:38:55.813
84.0, -8901.640686383937, -6796.6847450733185, -4999.337445068173, 4984.768664790783, -0.06400000303983688, -0.17600000835955143, 0.9760000463575125, 0.0, 0.0, 0.0, 0.0, 0.0, 1.651185535829292E9, 0.0, 2022-04-28 15:38:55.829
84.0, -8828.23766995361, -6598.327931223437, -5203.472404349595, 5037.740607763175, -0.06400000303983688, -0.17600000835955143, 0.9760000463575125, 0.0, 0.0, 0.0, 0.0, 0.0, 1.651185535829292E9, 0.0, 2022-04-28 15:38:55.829
85.0, -8719.660894440021, -6718.481567049865, -5281.0080102309585, 5049.382916325238, -0.06400000303983688, -0.17600000835955143, 0.9760000463575125, 0.0, 0.0, 0.0, 0.0, 0.0, 1.6511855358300388E9, 0.0, 2022-04-28 15:38:55.830
85.0, -8824.561348297168, -6842.893078975845, -5169.084024257027, 5170.841777236201, -0.06400000303983688, -0.17600000835955143, 0.9760000463575125, 0.0, 0.0, 0.0, 0.0, 0.0, 1.6511855358300388E9, 0.0, 2022-04-28 15:38:55.830
86.0, -8949.114976421464, -6733.944183416665, -5220.681553995702, 5238.846248080488, -0.06400000303983688, -0.17600000835955143, 0.9760000463575125, 0.0, 0.0, 0.0, 0.0, 0.0, 1.6511855358436575E9, 0.0, 2022-04-28 15:38:55.843
86.0, -9168.888327367604, -6551.968131372705, -5240.368387362454, 5356.638137084898, -0.06400000303983688, -0.17600000835955143, 0.9760000463575125, 0.0, 0.0, 0.0, 0.0, 0.0, 1.6511855358436575E9, 0.0, 2022-04-28 15:38:55.843
87.0, -9289.148550342768, -6696.945353155024, -5258.377875599079, 5573.31111096777, -0.06400000303983688, -0.17600000835955143, 0.9760000463575125, 0.0, 0.0, 0.0, 0.0, 0.0, 1.6511855358592875E9, 0.0, 2022-04-28 15:38:55.859
87.0, -9451.134837123565, -6735.462582798675, -5221.330426638015, 5703.745731772389, -0.06400000303983688, -0.17600000835955143, 0.9760000463575125, 0.0, 0.0, 0.0, 0.0, 0.0, 1.6511855358592875E9, 0.0, 2022-04-28 15:38:55.859
88.0, -9695.049242283683, -6829.960504929069, -5447.022169264033, 5900.528047740925, -0.06400000303983688, -0.17600000835955143, 0.9760000463575125, 0.0, 0.0, 0.0, 0.0, 0.0, 1.65118553586013E9, 0.0, 2022-04-28 15:38:55.860
88.0, -9750.2726050294, -7038.332770860288, -5363.053935458884, 6001.114526999183, -0.06400000303983688, -0.17600000835955143, 0.9760000463575125, 0.0, 0.0, 0.0, 0.0, 0.0, 1.65118553586013E9, 0.0, 2022-04-28 15:38:55.860
89.0, -9883.858091546688, -6813.903244469315, -5431.40621699905, 5935.408224677667, -0.06400000303983688, -0.17600000835955143, 0.9760000463575125, 0.0, 0.0, 0.0, 0.0, 0.0, 1.6511855358736815E9, 0.0, 2022-04-28 15:38:55.873
89.0, -9805.705402172636, -6578.181090162136, -5267.106802095659, 6044.553464984521, -0.06400000303983688, -0.17600000835955143, 0.9760000463575125, 0.0, 0.0, 0.0, 0.0, 0.0, 1.6511855358736815E9, 0.0, 2022-04-28 15:38:55.873
90.0, -9695.438191879075, -6735.557950247545, -5227.854682110716, 6014.897928285878, -0.06400000303983688, -0.17600000835955143, 0.9760000463575125, 0.0, 0.0, 0.0, 0.0, 0.0, 1.6511855358893425E9, 0.0, 2022-04-28 15:38:55.889
90.0, -9807.934382546227, -6854.112778842915, -5137.962446775753, 6129.150001982227, -0.06400000303983688, -0.17600000835955143, 0.9760000463575125, 0.0, 0.0, 0.0, 0.0, 0.0, 1.6511855358893425E9, 0.0, 2022-04-28 15:38:55.889
91.0, -9929.353974507656, -6796.39677277673, -5209.740476675332, 6266.406200306024, -0.06400000303983688, -0.17600000835955143, 0.9760000463575125, 0.0, 0.0, 0.0, 0.0, 0.0, 1.651185535890096E9, 0.0, 2022-04-28 15:38:55.890
91.0, -10147.949256967753, -7013.410077555571, -5291.857460002415, 6346.615834655706, -0.06400000303983688, -0.17600000835955143, 0.9760000463575125, 0.0, 0.0, 0.0, 0.0, 0.0, 1.651185535890096E9, 0.0, 2022-04-28 15:38:55.890
92.0, -10261.926448017359, -7177.154117315542, -5265.479945614934, 6549.208085205406, -0.06400000303983688, -0.17600000835955143, 0.9760000463575125, 0.0, 0.0, 0.0, 0.0, 0.0, 1.651185535903682E9, 0.0, 2022-04-28 15:38:55.903
92.0, -10431.616928706877, -7220.118088006508, -5202.6496263593435, 6660.513117736671, -0.06400000303983688, -0.17600000835955143, 0.9760000463575125, 0.0, 0.0, 0.0, 0.0, 0.0, 1.651185535903682E9, 0.0, 2022-04-28 15:38:55.903
93.0, -10676.499967955519, -7327.499965484254, -4982.2554520205595, 6433.6863154741, -0.06400000303983688, -0.17600000835955143, 0.9760000463575125, 0.0, 0.0, 0.0, 0.0, 0.0, 1.6511855359193926E9, 0.0, 2022-04-28 15:38:55.919
93.0, -10733.26416948298, -7520.549861297011, -4875.87399778096, 6475.432948729489, -0.06400000303983688, -0.17600000835955143, 0.9760000463575125, 0.0, 0.0, 0.0, 0.0, 0.0, 1.6511855359193926E9, 0.0, 2022-04-28 15:38:55.919
94.0, -10866.341029606294, -7297.193686193321, -4911.711589106359, 6402.98734668782, -0.06400000303983688, -0.17600000835955143, 0.9760000463575125, 0.0, 0.0, 0.0, 0.0, 0.0, 1.6511855359200964E9, 0.0, 2022-04-28 15:38:55.920
94.0, -10780.903015118558, -7521.424997886643, -4822.112935917918, 6572.359935881104, -0.06400000303983688, -0.17600000835955143, 0.9760000463575125, 0.0, 0.0, 0.0, 0.0, 0.0, 1.6511855359200964E9, 0.0, 2022-04-28 15:38:55.920
95.0, -10684.417336161714, -7724.19302373426, -4712.277684069239, 6489.908231507987, -0.06400000303983688, -0.17600000835955143, 0.9760000463575125, 0.0, 0.0, 0.0, 0.0, 0.0, 1.6511855359336593E9, 0.0, 2022-04-28 15:38:55.933
95.0, -10790.364962006453, -7836.939787698444, -4640.280870022252, 6611.670024315361, -0.06400000303983688, -0.17600000835955143, 0.9760000463575125, 0.0, 0.0, 0.0, 0.0, 0.0, 1.6511855359336593E9, 0.0, 2022-04-28 15:38:55.933
96.0, -10912.689609757159, -7721.5021657161415, -4782.346579689067, 6755.168115665205, -0.06400000303983688, -0.17600000835955143, 0.9760000463575125, 0.0, 0.0, 0.0, 0.0, 0.0, 1.651185535949335E9, 0.0, 2022-04-28 15:38:55.949
96.0, -11131.329771016724, -7528.512108302675, -4767.66186251305, 6846.425414483994, -0.06400000303983688, -0.17600000835955143, 0.9760000463575125, 0.0, 0.0, 0.0, 0.0, 0.0, 1.651185535949335E9, 0.0, 2022-04-28 15:38:55.949
97.0, -11246.301775454544, -7681.515155389905, -4755.3837709585205, 7029.581404963974, -0.06400000303983688, -0.17600000835955143, 0.9760000463575125, 0.0, 0.0, 0.0, 0.0, 0.0, 1.651185535950119E9, 0.0, 2022-04-28 15:38:55.950
97.0, -11419.934110697359, -7752.221703952178, -4656.63919242844, 7146.986214322969, -0.06400000303983688, -0.17600000835955143, 0.9760000463575125, 0.0, 0.0, 0.0, 0.0, 0.0, 1.651185535950119E9, 0.0, 2022-04-28 15:38:55.950
98.0, -11653.171101483982, -7794.159072105307, -4555.798399973195, 6966.0031057172455, -0.06400000303983688, -0.17600000835955143, 0.9760000463575125, 0.0, 0.0, 0.0, 0.0, 0.0, 1.65118553596372E9, 0.0, 2022-04-28 15:38:55.963
98.0, -11716.573625432793, -8011.0396104357205, -4350.840662701521, 6938.836472439114, -0.06400000303983688, -0.17600000835955143, 0.9760000463575125, 0.0, 0.0, 0.0, 0.0, 0.0, 1.65118553596372E9, 0.0, 2022-04-28 15:38:55.963
99.0, -11849.916018452961, -7796.3974022287875, -4391.663540667854, 6853.0431674555875, -0.06400000303983688, -0.17600000835955143, 0.9760000463575125, 0.0, 0.0, 0.0, 0.0, 0.0, 1.6511855359793453E9, 0.0, 2022-04-28 15:38:55.979
99.0, -11762.155526092742, -8001.147575052921, -4416.339400575496, 6622.487684937194, -0.06400000303983688, -0.17600000835955143, 0.9760000463575125, 0.0, 0.0, 0.0, 0.0, 0.0, 1.6511855359793453E9, 0.0, 2022-04-28 15:38:55.979
100.0, -11658.956726715434, -8220.969544698484, -4204.33756173728, 6448.112979553174, -0.06400000303983688, -0.17600000835955143, 0.9600000455975533, 0.0, 0.0, 0.0, 0.0, 0.0, 1.6511855359801283E9, 0.0, 2022-04-28 15:38:55.980
100.0, -11770.398265595082, -8327.212622639723, -4117.541963565629, 6581.62179812137, -0.06400000303983688, -0.17600000835955143, 0.9600000455975533, 0.0, 0.0, 0.0, 0.0, 0.0, 1.6511855359801283E9, 0.0, 2022-04-28 15:38:55.980
0.0, -126.29642150364816, -846.7675785175525, 5000.764216901269, -4000.894483947661, -0.06400000303983688, -0.17600000835955143, 0.9600000455975533, 0.0, 0.0, 0.0, 0.0, 0.0, 1.6511855359943783E9, 0.0, 2022-04-28 15:38:55.994
1.0, -346.13335074903443, -680.2036541909911, 5043.973151039332, -3936.4971466106363, -0.06400000303983688, -0.17600000835955143, 0.9600000455975533, 0.0, 0.0, 0.0, 0.0, 0.0, 1.651185535995085E9, 0.0, 2022-04-28 15:38:55.995
1.0, -463.78312355512753, -813.811580108013, 5046.108633914031, -3743.9689668416977, -0.06400000303983688, -0.17600000835955143, 0.9600000455975533, 0.0, 0.0, 0.0, 0.0, 0.0, 1.651185535995085E9, 0.0, 2022-04-28 15:38:55.995
2.0, -630.4742044801824, -948.6274937107228, 5183.92768718116, -3621.9192017377354, -0.04800000227987766, -0.17600000835955143, 0.9600000455975533, 0.0, 0.0, 0.0, 0.0, 0.0, 1.6511855360087314E9, 0.0, 2022-04-28 15:38:56.008
2.0, -869.3397447001189, -921.3524033338763, 5168.971827258356, -3768.0202634567395, -0.04800000227987766, -0.17600000835955143, 0.9600000455975533, 0.0, 0.0, 0.0, 0.0, 0.0, 1.6511855360087314E9, 0.0, 2022-04-28 15:38:56.008
3.0, -927.2184364143759, -1128.7522952766158, 4943.09495958453, -3859.8497669687495, -0.04800000227987766, -0.17600000835955143, 0.9600000455975533, 0.0, 0.0, 0.0, 0.0, 0.0, 1.651185536024334E9, 0.0, 2022-04-28 15:38:56.024
3.0, -1061.9632919179276, -916.6793983392417, 4939.93661407195, -3953.4295436600223, -0.04800000227987766, -0.17600000835955143, 0.9600000455975533, 0.0, 0.0, 0.0, 0.0, 0.0, 1.651185536024334E9, 0.0, 2022-04-28 15:38:56.024
4.0, -980.4596521835774, -695.3109800620005, 4870.411873895675, -4078.972375322599, -0.04800000227987766, -0.17600000835955143, 0.9600000455975533, 0.0, 0.0, 0.0, 0.0, 0.0, 1.6511855360394251E9, 0.0, 2022-04-28 15:38:56.039
4.0, -877.238413406536, -847.6090560075827, 5110.074012806173, -3853.123556898441, -0.04800000227987766, -0.17600000835955143, 0.9600000455975533, 0.0, 0.0, 0.0, 0.0, 0.0, 1.6511855360394251E9, 0.0, 2022-04-28 15:38:56.039
5.0, -986.2190981153399, -970.4572897520848, 5210.77455901308, -3749.982725970447, -0.04800000227987766, -0.17600000835955143, 0.9600000455975533, 0.0, 0.0, 0.0, 0.0, 0.0, 1.6511855360401871E9, 0.0, 2022-04-28 15:38:56.040
5.0, -1100.3795442627743, -851.3882249128073, 4991.67812995892, -3990.8248033169657, -0.04800000227987766, -0.17600000835955143, 0.9600000455975533, 0.0, 0.0, 0.0, 0.0, 0.0, 1.6511855360401871E9, 0.0, 2022-04-28 15:38:56.040
6.0, -1328.1749806138687, -670.1713725598529, 5031.925063332077, -3926.7378776762635, -0.04800000227987766, -0.17600000835955143, 0.9600000455975533, 0.0, 0.0, 0.0, 0.0, 0.0, 1.6511855360550156E9, 0.0, 2022-04-28 15:38:56.055
6.0, -1444.5494475350715, -808.0801834259182, 5062.091096374672, -3759.5886590066366, -0.04800000227987766, -0.17600000835955143, 0.9600000455975533, 0.0, 0.0, 0.0, 0.0, 0.0, 1.6511855360550156E9, 0.0, 2022-04-28 15:38:56.055
7.0, -1611.4537027576007, -848.1943503506482, 5139.346209759358, -3676.2767776437104, -0.04800000227987766, -0.17600000835955143, 0.9600000455975533, 0.0, 0.0, 0.0, 0.0, 0.0, 1.6511855360558293E9, 0.0, 2022-04-28 15:38:56.055
7.0, -1849.4366265879944, -950.2805294911377, 5207.133766406216, -3765.0788321415894, -0.04800000227987766, -0.17600000835955143, 0.9600000455975533, 0.0, 0.0, 0.0, 0.0, 0.0, 1.6511855360558293E9, 0.0, 2022-04-28 15:38:56.055
8.0, -1910.647569162771, -1152.3099250975065, 4994.0623161806725, -3867.4473737287335, -0.04800000227987766, -0.17600000835955143, 0.9600000455975533, 0.0, 0.0, 0.0, 0.0, 0.0, 1.651185536068754E9, 0.0, 2022-04-28 15:38:56.068
8.0, -2043.2457220917568, -930.0981593802571, 4990.447702873498, -3978.111013417598, -0.04800000227987766, -0.17600000835955143, 0.9600000455975533, 0.0, 0.0, 0.0, 0.0, 0.0, 1.651185536068754E9, 0.0, 2022-04-28 15:38:56.068
9.0, -1960.9230442671105, -732.4818457216024, 4843.963301409036, -4008.873560503125, -0.04800000227987766, -0.17600000835955143, 0.9600000455975533, 0.0, 0.0, 0.0, 0.0, 0.0, 1.651185536084412E9, 0.0, 2022-04-28 15:38:56.084
9.0, -1862.0550490384921, -836.3594369408675, 4621.588850043714, -3850.5972544783726, -0.04800000227987766, -0.17600000835955143, 0.9600000455975533, 0.0, 0.0, 0.0, 0.0, 0.0, 1.651185536084412E9, 0.0, 2022-04-28 15:38:56.084
10.0, -1966.7572881979868, -963.5833536335267, 4738.677637856454, -3750.418424315285, -0.04800000227987766, -0.17600000835955143, 0.9600000455975533, 0.0, 0.0, 0.0, 0.0, 0.0, 1.6511855360851264E9, 0.0, 2022-04-28 15:38:56.085
10.0, -2080.5736635494977, -788.5279864575714, 4924.517006554641, -3982.075307370629, -0.04800000227987766, -0.17600000835955143, 0.9600000455975533, 0.0, 0.0, 0.0, 0.0, 0.0, 1.6511855360851264E9, 0.0, 2022-04-28 15:38:56.085
11.0, -2309.2442364902236, -693.5607068827376, 5050.673181809951, -3933.3967695473693, -0.04800000227987766, -0.17600000835955143, 0.9600000455975533, 0.0, 0.0, 0.0, 0.0, 0.0, 1.6511855360986884E9, 0.0, 2022-04-28 15:38:56.098
11.0, -2423.8085918328725, -815.657220736146, 5062.319230271969, -3771.113160720095, -0.04800000227987766, -0.17600000835955143, 0.9600000455975533, 0.0, 0.0, 0.0, 0.0, 0.0, 1.6511855360986884E9, 0.0, 2022-04-28 15:38:56.098
12.0, -2586.486760105472, -874.8373976349831, 5166.905532532837, -3682.180209723767, -0.04800000227987766, -0.17600000835955143, 0.9600000455975533, 0.0, 0.0, 0.0, 0.0, 0.0, 1.6511855361143796E9, 0.0, 2022-04-28 15:38:56.114
12.0, -2826.601426910609, -929.6101024360396, 5153.838322087657, -3736.9304751250893, -0.04800000227987766, -0.17600000835955143, 0.9600000455975533, 0.0, 0.0, 0.0, 0.0, 0.0, 1.6511855361143796E9, 0.0, 2022-04-28 15:38:56.114
13.0, -2893.96076501254, -1170.0856695869006, 5036.37367432937, -3879.71985543333, -0.04800000227987766, -0.17600000835955143, 0.9600000455975533, 0.0, 0.0, 0.0, 0.0, 0.0, 1.6511855361151402E9, 0.0, 2022-04-28 15:38:56.115
13.0, -3024.0644046710804, -954.7852389877662, 5030.806833245326, -3997.418246938847, -0.04800000227987766, -0.17600000835955143, 0.9600000455975533, 0.0, 0.0, 0.0, 0.0, 0.0, 1.6511855361151402E9, 0.0, 2022-04-28 15:38:56.115
14.0, -2936.1430966127664, -1133.995635014493, 5219.707310057245, -4000.1988625559025, -0.04800000227987766, -0.17600000835955143, 0.9600000455975533, 0.0, 0.0, 0.0, 0.0, 0.0, 1.6511855361286893E9, 0.0, 2022-04-28 15:38:56.128
14.0, -2839.80701365415, -1358.1371891088784, 5172.6818080144, -3890.6609327537008, -0.04800000227987766, -0.17600000835955143, 0.9600000455975533, 0.0, 0.0, 0.0, 0.0, 0.0, 1.6511855361286893E9, 0.0, 2022-04-28 15:38:56.128
15.0, -2947.041165083647, -1483.1994436271489, 5280.817275333218, -3774.950298074633, -0.04800000227987766, -0.17600000835955143, 0.9600000455975533, 0.0, 0.0, 0.0, 0.0, 0.0, 1.6511855361443908E9, 0.0, 2022-04-28 15:38:56.144
15.0, -3066.138279172592, -1382.878497265745, 5462.999021874741, -3930.1411866359413, -0.04800000227987766, -0.17600000835955143, 0.9600000455975533, 0.0, 0.0, 0.0, 0.0, 0.0, 1.6511855361443908E9, 0.0, 2022-04-28 15:38:56.144
16.0, -3286.5586328110658, -1619.8853072077036, 5481.969664399978, -3929.142633347772, -0.04800000227987766, -0.17600000835955143, 0.9600000455975533, 0.0, 0.0, 0.0, 0.0, 0.0, 1.6511855361451075E9, 0.0, 2022-04-28 15:38:56.145
16.0, -3402.8022032338195, -1790.032055691816, 5549.74413139699, -3766.2494208277203, -0.04800000227987766, -0.17600000835955143, 0.9600000455975533, 0.0, 0.0, 0.0, 0.0, 0.0, 1.6511855361451075E9, 0.0, 2022-04-28 15:38:56.145
17.0, -3574.680525397416, -1930.9664456220344, 5724.1730653303675, -3674.1861735684797, -0.04800000227987766, -0.17600000835955143, 0.9600000455975533, 0.0, 0.0, 0.0, 0.0, 0.0, 1.6511855361586926E9, 0.0, 2022-04-28 15:38:56.158
17.0, -3805.621217611246, -1856.7443911014125, 5553.237197955605, -3691.3392247152515, -0.04800000227987766, -0.17600000835955143, 0.9600000455975533, 0.0, 0.0, 0.0, 0.0, 0.0, 1.6511855361586926E9, 0.0, 2022-04-28 15:38:56.158
18.0, -3872.385911620222, -1639.031725030858, 5502.8738352023065, -3902.5687742126174, -0.04800000227987766, -0.17600000835955143, 0.9600000455975533, 0.0, 0.0, 0.0, 0.0, 0.0, 1.6511855361907706E9, 0.0, 2022-04-28 15:38:56.190
18.0, -4007.366380820982, -1428.1705556791276, 5546.234235288575, -4033.670967159327, -0.04800000227987766, -0.17600000835955143, 0.9600000455975533, 0.0, 0.0, 0.0, 0.0, 0.0, 1.6511855361907706E9, 0.0, 2022-04-28 15:38:56.190
19.0, -3910.061663773842, -1606.8162268125452, 5683.684908410069, -3963.51418389054, -0.04800000227987766, -0.17600000835955143, 0.9600000455975533, 0.0, 0.0, 0.0, 0.0, 0.0, 1.65118553619151E9, 0.0, 2022-04-28 15:38:56.191
19.0, -3821.538231822662, -1851.3851144649088, 5697.872218891978, -3912.546827294398, -0.04800000227987766, -0.17600000835955143, 0.9600000455975533, 0.0, 0.0, 0.0, 0.0, 0.0, 1.65118553619151E9, 0.0, 2022-04-28 15:38:56.191
20.0, -3928.095461360179, -1964.5058684246615, 5789.432449607179, -3814.697954803705, -0.04800000227987766, -0.17600000835955143, 0.9600000455975533, 0.0, 0.0, 0.0, 0.0, 0.0, 1.6511855361921716E9, 0.0, 2022-04-28 15:38:56.192
20.0, -4045.262787071988, -1885.8987812059931, 5932.674357810058, -3901.7590858722106, -0.04800000227987766, -0.17600000835955143, 0.9600000455975533, 0.0, 0.0, 0.0, 0.0, 0.0, 1.6511855361921716E9, 0.0, 2022-04-28 15:38:56.192
21.0, -4268.805957173463, -2116.0578343290836, 5962.198998010252, -3911.211683010217, -0.04800000227987766, -0.17600000835955143, 0.9600000455975533, 0.0, 0.0, 0.0, 0.0, 0.0, 1.6511855361930091E9, 0.0, 2022-04-28 15:38:56.193
21.0, -4389.873998539057, -2267.1909314384684, 6039.693464992102, -3782.7442495822906, -0.04800000227987766, -0.17600000835955143, 0.9600000455975533, 0.0, 0.0, 0.0, 0.0, 0.0, 1.6511855361930091E9, 0.0, 2022-04-28 15:38:56.193
22.0, -4551.280600826722, -2306.7852522693574, 6145.031487144064, -3718.0421103988774, -0.04800000227987766, -0.17600000835955143, 0.9600000455975533, 0.0, 0.0, 0.0, 0.0, 0.0, 1.651185536203684E9, 0.0, 2022-04-28 15:38:56.203
22.0, -4786.080869794823, -2408.957449108828, 6075.192595371511, -3680.2092824471183, -0.04800000227987766, -0.17600000835955143, 0.9600000455975533, 0.0, 0.0, 0.0, 0.0, 0.0, 1.651185536203684E9, 0.0, 2022-04-28 15:38:56.203
23.0, -4855.934721167199, -2634.7464291336946, 6051.229186405428, -3925.1689896448515, -0.04800000227987766, -0.17600000835955143, 0.9600000455975533, 0.0, 0.0, 0.0, 0.0, 0.0, 1.6511855362186384E9, 0.0, 2022-04-28 15:38:56.218
23.0, -4986.603085719049, -2407.7288919733837, 6065.964392230846, -4055.197831304278, -0.04800000227987766, -0.17600000835955143, 0.9600000455975533, 0.0, 0.0, 0.0, 0.0, 0.0, 1.6511855362186384E9, 0.0, 2022-04-28 15:38:56.218
24.0, -4892.353866935708, -2641.276294456329, 6134.155858072918, -3887.2875429936685, -0.04800000227987766, -0.17600000835955143, 0.9600000455975533, 0.0, 0.0, 0.0, 0.0, 0.0, 1.6511855362340553E9, 0.0, 2022-04-28 15:38:56.234
24.0, -4798.942385742441, -2828.071207593195, 6194.471094608307, -3927.613014265895, -0.04800000227987766, -0.17600000835955143, 0.9600000455975533, 0.0, 0.0, 0.0, 0.0, 0.0, 1.6511855362340553E9, 0.0, 2022-04-28 15:38:56.234
25.0, -4908.039007349871, -2942.9422347322106, 6296.978012493812, -3824.2253499408253, -0.04800000227987766, -0.17600000835955143, 0.9600000455975533, 0.0, 0.0, 0.0, 0.0, 0.0, 1.65118553624939E9, 0.0, 2022-04-28 15:38:56.249
25.0, -5022.3079105960205, -2798.501688593533, 6351.662829645909, -3890.1485664597712, -0.04800000227987766, -0.17600000835955143, 0.9600000455975533, 0.0, 0.0, 0.0, 0.0, 0.0, 1.65118553624939E9, 0.0, 2022-04-28 15:38:56.249
26.0, -5248.783162262756, -2637.225982804317, 6487.639982184861, -3925.103541395627, -0.04800000227987766, -0.17600000835955143, 0.9600000455975533, 0.0, 0.0, 0.0, 0.0, 0.0, 1.6511855362500293E9, 0.0, 2022-04-28 15:38:56.250
26.0, -5363.934681898449, -2769.278110339772, 6564.28549187677, -3789.253545455169, -0.04800000227987766, -0.17600000835955143, 0.9600000455975533, 0.0, 0.0, 0.0, 0.0, 0.0, 1.6511855362500293E9, 0.0, 2022-04-28 15:38:56.250
27.0, -5533.883215684909, -2863.194478027057, 6704.1315709198825, -3717.9430030500516, -0.04800000227987766, -0.17600000835955143, 0.9600000455975533, 0.0, 0.0, 0.0, 0.0, 0.0, 1.6511855362650497E9, 0.0, 2022-04-28 15:38:56.265
27.0, -5769.880252638832, -2888.3957938784733, 6504.174079888966, -3631.128705378622, -0.04800000227987766, -0.17600000835955143, 0.9600000455975533, 0.0, 0.0, 0.0, 0.0, 0.0, 1.6511855362650497E9, 0.0, 2022-04-28 15:38:56.265
28.0, -5833.499690785073, -3111.170414539054, 6517.469424231444, -3445.3398253298365, -0.04800000227987766, -0.17600000835955143, 0.9600000455975533, 0.0, 0.0, 0.0, 0.0, 0.0, 1.651185536265794E9, 0.0, 2022-04-28 15:38:56.265
28.0, -5972.272418540902, -2891.8458515875973, 6573.69134026533, -3627.2223798749037, -0.04800000227987766, -0.17600000835955143, 0.9600000455975533, 0.0, 0.0, 0.0, 0.0, 0.0, 1.651185536265794E9, 0.0, 2022-04-28 15:38:56.265
29.0, -5871.482114735059, -3106.959287188947, 6541.2177889500745, -3850.836608075537, -0.04800000227987766, -0.17600000835955143, 0.9600000455975533, 0.0, 0.0, 0.0, 0.0, 0.0, 1.651185536278682E9, 0.0, 2022-04-28 15:38:56.278
29.0, -5792.024200276472, -3324.608374960255, 6693.45228659641, -3949.489559056703, -0.04800000227987766, -0.17600000835955143, 0.9600000455975533, 0.0, 0.0, 0.0, 0.0, 0.0, 1.651185536278682E9, 0.0, 2022-04-28 15:38:56.278
30.0, -5891.180167801678, -3436.4538230351172, 6826.09905822482, -3852.1680124597624, -0.04800000227987766, -0.17600000835955143, 0.9760000463575125, 0.0, 0.0, 0.0, 0.0, 0.0, 1.651185536294424E9, 0.0, 2022-04-28 15:38:56.294
30.0, -6000.688178404234, -3287.772230346687, 6805.000412624795, -3864.064634218812, -0.04800000227987766, -0.17600000835955143, 0.9760000463575125, 0.0, 0.0, 0.0, 0.0, 0.0, 1.651185536294424E9, 0.0, 2022-04-28 15:38:56.294
31.0, -6230.136650535744, -3117.962072858587, 6976.173763646744, -3926.7247880264185, -0.04800000227987766, -0.17600000835955143, 0.9760000463575125, 0.0, 0.0, 0.0, 0.0, 0.0, 1.651185536295113E9, 0.0, 2022-04-28 15:38:56.295
31.0, -6345.314349471126, -3259.393869482912, 7056.072986300103, -3794.887704738416, -0.04800000227987766, -0.17600000835955143, 0.9760000463575125, 0.0, 0.0, 0.0, 0.0, 0.0, 1.651185536295113E9, 0.0, 2022-04-28 15:38:56.295
32.0, -6513.018943284173, -3326.9663818823174, 7187.766083439812, -3738.6751384544186, -0.04800000227987766, -0.17600000835955143, 0.9760000463575125, 0.0, 0.0, 0.0, 0.0, 0.0, 1.6511855363086684E9, 0.0, 2022-04-28 15:38:56.308
32.0, -6750.194048724137, -3357.642911268864, 6969.606499324553, -3611.410082862247, -0.04800000227987766, -0.17600000835955143, 0.9760000463575125, 0.0, 0.0, 0.0, 0.0, 0.0, 1.6511855363086684E9, 0.0, 2022-04-28 15:38:56.308
33.0, -6816.304260240868, -3123.4073671940714, 7045.616226023994, -3477.186943402514, -0.04800000227987766, -0.17600000835955143, 0.9760000463575125, 0.0, 0.0, 0.0, 0.0, 0.0, 1.651185536324401E9, 0.0, 2022-04-28 15:38:56.324
33.0, -6951.6512396372855, -2912.856609538663, 7086.736426036805, -3629.9281974928454, -0.04800000227987766, -0.17600000835955143, 0.9760000463575125, 0.0, 0.0, 0.0, 0.0, 0.0, 1.651185536324401E9, 0.0, 2022-04-28 15:38:56.324
34.0, -6851.152648027986, -3068.958163739182, 6971.70832309965, -3820.8444803808816, -0.04800000227987766, -0.17600000835955143, 0.9760000463575125, 0.0, 0.0, 0.0, 0.0, 0.0, 1.6511855363250601E9, 0.0, 2022-04-28 15:38:56.325
34.0, -6765.191047546454, -2845.514100986533, 6743.593125302345, -3976.2915520891547, -0.04800000227987766, -0.17600000835955143, 0.9760000463575125, 0.0, 0.0, 0.0, 0.0, 0.0, 1.6511855363250601E9, 0.0, 2022-04-28 15:38:56.325
35.0, -6870.506630298682, -2958.773231244646, 6850.718819633126, -3873.4910520571284, -0.04800000227987766, -0.17600000835955143, 0.9760000463575125, 0.0, 0.0, 0.0, 0.0, 0.0, 1.6511855363387797E9, 0.0, 2022-04-28 15:38:56.338
35.0, -6981.847191879526, -2829.228706629481, 6806.881582302507, -3825.3417100775987, -0.04800000227987766, -0.17600000835955143, 0.9760000463575125, 0.0, 0.0, 0.0, 0.0, 0.0, 1.6511855363387797E9, 0.0, 2022-04-28 15:38:56.338
36.0, -7207.806337352376, -2617.7785030347295, 6968.136718641967, -3914.8356460672803, -0.04800000227987766, -0.17600000835955143, 0.9760000463575125, 0.0, 0.0, 0.0, 0.0, 0.0, 1.6511855363544328E9, 0.0, 2022-04-28 15:38:56.354
36.0, -7323.64225867996, -2769.1322542415, 7051.158757758327, -3809.6191706638783, -0.04800000227987766, -0.17600000835955143, 0.9760000463575125, 0.0, 0.0, 0.0, 0.0, 0.0, 1.6511855363544328E9, 0.0, 2022-04-28 15:38:56.354
37.0, -7492.9176104743965, -2819.30301214708, 7179.635540936142, -3756.013314648997, -0.04800000227987766, -0.17600000835955143, 0.9760000463575125, 0.0, 0.0, 0.0, 0.0, 0.0, 1.651185536355144E9, 0.0, 2022-04-28 15:38:56.355
37.0, -7727.8338163411245, -2874.9471136378124, 6940.786830266006, -3599.4237035042606, -0.04800000227987766, -0.17600000835955143, 0.9760000463575125, 0.0, 0.0, 0.0, 0.0, 0.0, 1.651185536355144E9, 0.0, 2022-04-28 15:38:56.355
38.0, -7794.29557845369, -2645.2405884093605, 7083.819304071367, -3483.2343616308644, -0.04800000227987766, -0.17600000835955143, 0.9760000463575125, 0.0, 0.0, 0.0, 0.0, 0.0, 1.651185536368726E9, 0.0, 2022-04-28 15:38:56.368
38.0, -7933.4909149045125, -2425.9160254579037, 7145.467814940959, -3663.9949461892247, -0.04800000227987766, -0.17600000835955143, 0.9760000463575125, 0.0, 0.0, 0.0, 0.0, 0.0, 1.651185536368726E9, 0.0, 2022-04-28 15:38:56.368
39.0, -7832.9175252960995, -2597.523204874713, 6919.626476316713, -3745.7435493706726, -0.04800000227987766, -0.17600000835955143, 0.9760000463575125, 0.0, 0.0, 0.0, 0.0, 0.0, 1.6511855363844104E9, 0.0, 2022-04-28 15:38:56.384
39.0, -7748.92311219126, -2353.165621569846, 6758.414348826744, -3501.9394712592475, -0.04800000227987766, -0.17600000835955143, 0.9760000463575125, 0.0, 0.0, 0.0, 0.0, 0.0, 1.6511855363844104E9, 0.0, 2022-04-28 15:38:56.384
40.0, -7856.190922720358, -2469.3119545937516, 6861.897380600683, -3404.77126056049, -0.04800000227987766, -0.17600000835955143, 0.9600000455975533, 0.0, 0.0, 0.0, 0.0, 0.0, 1.6511855363851163E9, 0.0, 2022-04-28 15:38:56.385
40.0, -7960.104042989202, -2351.488276439719, 6773.286061000545, -3293.3128921310417, -0.04800000227987766, -0.17600000835955143, 0.9600000455975533, 0.0, 0.0, 0.0, 0.0, 0.0, 1.6511855363851163E9, 0.0, 2022-04-28 15:38:56.385
41.0, -8190.408952210564, -2128.051693486981, 6949.310062265024, -3413.7881593536586, -0.04800000227987766, -0.17600000835955143, 0.9600000455975533, 0.0, 0.0, 0.0, 0.0, 0.0, 1.6511855363986802E9, 0.0, 2022-04-28 15:38:56.398
41.0, -8310.227866990957, -2273.8591730594635, 7066.309092478827, -3304.7008874961175, -0.04800000227987766, -0.17600000835955143, 0.9600000455975533, 0.0, 0.0, 0.0, 0.0, 0.0, 1.6511855363986802E9, 0.0, 2022-04-28 15:38:56.398
42.0, -8474.095323449466, -2264.817964916583, 7159.245606377721, -3279.2377786478028, -0.04800000227987766, -0.17600000835955143, 0.9600000455975533, 0.0, 0.0, 0.0, 0.0, 0.0, 1.6511855364143836E9, 0.0, 2022-04-28 15:38:56.414
42.0, -8710.354153400287, -2393.012385647744, 6959.246976447292, -3100.5528385648504, -0.04800000227987766, -0.17600000835955143, 0.9600000455975533, 0.0, 0.0, 0.0, 0.0, 0.0, 1.6511855364143836E9, 0.0, 2022-04-28 15:38:56.414
43.0, -8780.16686587315, -2175.0977649795823, 7121.906445220113, -3002.3374558785, -0.04800000227987766, -0.17600000835955143, 0.9600000455975533, 0.0, 0.0, 0.0, 0.0, 0.0, 1.6511855364150965E9, 0.0, 2022-04-28 15:38:56.415
43.0, -8916.534837957472, -1943.476410973817, 7187.896979938261, -3193.0050354194827, -0.04800000227987766, -0.17600000835955143, 0.9600000455975533, 0.0, 0.0, 0.0, 0.0, 0.0, 1.6511855364150965E9, 0.0, 2022-04-28 15:38:56.415
44.0, -8809.633537624031, -2099.469508075621, 7364.287491398398, -3196.066143533215, -0.04800000227987766, -0.17600000835955143, 0.9600000455975533, 0.0, 0.0, 0.0, 0.0, 0.0, 1.6511855364287364E9, 0.0, 2022-04-28 15:38:56.428
44.0, -8725.837339216843, -1880.0794968749397, 7288.431100597139, -3019.3745701266453, -0.04800000227987766, -0.17600000835955143, 0.9600000455975533, 0.0, 0.0, 0.0, 0.0, 0.0, 1.6511855364287364E9, 0.0, 2022-04-28 15:38:56.428
45.0, -8836.856269401498, -1982.9117860565893, 7390.504190087784, -2927.6628734632395, -0.04800000227987766, -0.17600000835955143, 0.9600000455975533, 0.0, 0.0, 0.0, 0.0, 0.0, 1.6511855364443877E9, 0.0, 2022-04-28 15:38:56.444
45.0, -8938.805942193605, -1820.2803665334359, 7208.3841518955305, -2800.130415024236, -0.04800000227987766, -0.17600000835955143, 0.9600000455975533, 0.0, 0.0, 0.0, 0.0, 0.0, 1.6511855364443877E9, 0.0, 2022-04-28 15:38:56.444
46.0, -9169.469881810714, -1658.4997742502019, 6966.77165515814, -2926.6867595748045, -0.04800000227987766, -0.17600000835955143, 0.9600000455975533, 0.0, 0.0, 0.0, 0.0, 0.0, 1.651185536445128E9, 0.0, 2022-04-28 15:38:56.445
46.0, -9286.308096326422, -1791.2101241778582, 7078.160835438408, -2839.9977485518903, -0.04800000227987766, -0.17600000835955143, 0.9600000455975533, 0.0, 0.0, 0.0, 0.0, 0.0, 1.651185536445128E9, 0.0, 2022-04-28 15:38:56.445
47.0, -9452.931859052274, -1810.388331150636, 7187.631447041407, -2798.8345396895893, -0.04800000227987766, -0.17600000835955143, 0.9600000455975533, 0.0, 0.0, 0.0, 0.0, 0.0, 1.6511855364750912E9, 0.0, 2022-04-28 15:38:56.475
47.0, -9685.275013749488, -1907.982890444342, 7382.871054278221, -3033.8928617546335, -0.04800000227987766, -0.17600000835955143, 0.9600000455975533, 0.0, 0.0, 0.0, 0.0, 0.0, 1.6511855364750912E9, 0.0, 2022-04-28 15:38:56.475
48.0, -9758.588272580877, -1677.1469154292718, 7613.237671848852, -3021.63533964986, -0.04800000227987766, -0.17600000835955143, 0.9600000455975533, 0.0, 0.0, 0.0, 0.0, 0.0, 1.6511855364757185E9, 0.0, 2022-04-28 15:38:56.475
48.0, -9897.742470132187, -1469.0420523448847, 7725.434670519549, -3228.6612415970303, -0.04800000227987766, -0.17600000835955143, 0.9600000455975533, 0.0, 0.0, 0.0, 0.0, 0.0, 1.6511855364757185E9, 0.0, 2022-04-28 15:38:56.475
49.0, -9792.516644978896, -1606.8928947616369, 7782.6009112922475, -3147.5390716581605, -0.04800000227987766, -0.17600000835955143, 0.9600000455975533, 0.0, 0.0, 0.0, 0.0, 0.0, 1.6511855364764843E9, 0.0, 2022-04-28 15:38:56.476
49.0, -9707.770511982962, -1380.9879778381437, 7796.754562674556, -3042.462842503097, -0.04800000227987766, -0.17600000835955143, 0.9600000455975533, 0.0, 0.0, 0.0, 0.0, 0.0, 1.6511855364764843E9, 0.0, 2022-04-28 15:38:56.476
50.0, -9813.029996235855, -1493.0952189099044, 7887.196563303005, -2952.3780023204163, -0.04800000227987766, -0.17600000835955143, 0.9760000463575125, 0.0, 0.0, 0.0, 0.0, 0.0, 1.651185536488668E9, 0.0, 2022-04-28 15:38:56.488
50.0, -9915.989442015998, -1297.9977278714068, 7656.708398983814, -2778.3660672320984, -0.04800000227987766, -0.17600000835955143, 0.9760000463575125, 0.0, 0.0, 0.0, 0.0, 0.0, 1.651185536488668E9, 0.0, 2022-04-28 15:38:56.488
51.0, -10153.534797551576, -1168.1970201092772, 7464.492500861175, -2933.3905302453786, -0.04800000227987766, -0.17600000835955143, 0.9760000463575125, 0.0, 0.0, 0.0, 0.0, 0.0, 1.6511855365043736E9, 0.0, 2022-04-28 15:38:56.504
51.0, -10265.503662324976, -1306.7603134675883, 7584.7228046366945, -2844.233185251709, -0.04800000227987766, -0.17600000835955143, 0.9760000463575125, 0.0, 0.0, 0.0, 0.0, 0.0, 1.6511855365043736E9, 0.0, 2022-04-28 15:38:56.504
52.0, -10432.370518547948, -1352.4693707260303, 7709.844897554256, -2777.3432045942172, -0.04800000227987766, -0.17600000835955143, 0.9760000463575125, 0.0, 0.0, 0.0, 0.0, 0.0, 1.651185536505134E9, 0.0, 2022-04-28 15:38:56.505
52.0, -10664.926847542636, -1386.5529489722103, 7825.757486830931, -3002.8984408718534, -0.04800000227987766, -0.17600000835955143, 0.9760000463575125, 0.0, 0.0, 0.0, 0.0, 0.0, 1.651185536505134E9, 0.0, 2022-04-28 15:38:56.505
53.0, -10740.985192941502, -1185.3444614061154, 7620.416409813799, -3041.269814417232, -0.04800000227987766, -0.17600000835955143, 0.9760000463575125, 0.0, 0.0, 0.0, 0.0, 0.0, 1.6511855365186968E9, 0.0, 2022-04-28 15:38:56.518
53.0, -10882.016820270568, -999.7799753546715, 7755.89054580871, -3253.415639403742, -0.04800000227987766, -0.17600000835955143, 0.9760000463575125, 0.0, 0.0, 0.0, 0.0, 0.0, 1.6511855365186968E9, 0.0, 2022-04-28 15:38:56.518
54.0, -10766.07244184427, -1117.2782822125591, 7720.185720931739, -3092.730837807525, -0.04800000227987766, -0.17600000835955143, 0.9760000463575125, 0.0, 0.0, 0.0, 0.0, 0.0, 1.6511855365344155E9, 0.0, 2022-04-28 15:38:56.534
54.0, -10690.15621264372, -873.9753506951965, 7784.442812020425, -3049.9426424144767, -0.04800000227987766, -0.17600000835955143, 0.9760000463575125, 0.0, 0.0, 0.0, 0.0, 0.0, 1.6511855365344155E9, 0.0, 2022-04-28 15:38:56.534
55.0, -10798.545993159525, -1005.1373820411973, 7924.550684060436, -2987.8920922996476, -0.04800000227987766, -0.17600000835955143, 0.9760000463575125, 0.0, 0.0, 0.0, 0.0, 0.0, 1.6511855365351129E9, 0.0, 2022-04-28 15:38:56.535
55.0, -10898.737912972458, -840.4714569421485, 8138.155070029665, -2749.1088298787363, -0.04800000227987766, -0.17600000835955143, 0.9760000463575125, 0.0, 0.0, 0.0, 0.0, 0.0, 1.6511855365351129E9, 0.0, 2022-04-28 15:38:56.535
56.0, -11127.580521311145, -645.8059243485332, 7925.65769444732, -2942.538325536996, -0.04800000227987766, -0.17600000835955143, 0.9760000463575125, 0.0, 0.0, 0.0, 0.0, 0.0, 1.651185536548722E9, 0.0, 2022-04-28 15:38:56.548
56.0, -11248.521406078245, -810.3465627990663, 8073.735293292906, -2850.086128682364, -0.04800000227987766, -0.17600000835955143, 0.9760000463575125, 0.0, 0.0, 0.0, 0.0, 0.0, 1.651185536548722E9, 0.0, 2022-04-28 15:38:56.548
57.0, -11418.776611661073, -904.1133344881237, 8246.27557774866, -2800.624081818387, -0.04800000227987766, -0.17600000835955143, 0.9760000463575125, 0.0, 0.0, 0.0, 0.0, 0.0, 1.651185536564352E9, 0.0, 2022-04-28 15:38:56.564
57.0, -11646.538388912566, -869.0106335040182, 8263.832538090646, -2993.8665824788623, -0.04800000227987766, -0.17600000835955143, 0.9760000463575125, 0.0, 0.0, 0.0, 0.0, 0.0, 1.651185536564352E9, 0.0, 2022-04-28 15:38:56.564
58.0, -11715.988331089728, -687.6273556030355, 8129.321426334325, -3055.6609494467266, -0.04800000227987766, -0.17600000835955143, 0.9760000463575125, 0.0, 0.0, 0.0, 0.0, 0.0, 1.6511855365650728E9, 0.0, 2022-04-28 15:38:56.565
58.0, -11854.592763347551, -488.93582070712, 8257.499017515685, -3292.7818263373338, -0.04800000227987766, -0.17600000835955143, 0.9760000463575125, 0.0, 0.0, 0.0, 0.0, 0.0, 1.6511855365650728E9, 0.0, 2022-04-28 15:38:56.565
59.0, -11742.88569157105, -605.0653241812252, 8158.803057685029, -3061.326897879597, -0.04800000227987766, -0.17600000835955143, 0.9760000463575125, 0.0, 0.0, 0.0, 0.0, 0.0, 1.6511855365786607E9, 0.0, 2022-04-28 15:38:56.578
59.0, -11670.6831830265, -395.92637875908986, 8323.611098982394, -3087.545466518961, -0.04800000227987766, -0.17600000835955143, 0.9760000463575125, 0.0, 0.0, 0.0, 0.0, 0.0, 1.6511855365786607E9, 0.0, 2022-04-28 15:38:56.578
60.0, -11779.024344842881, -522.5780907585286, 8457.058209201321, -3010.4979175818153, -0.04800000227987766, -0.17600000835955143, 0.9760000463575125, 0.0, 0.0, 0.0, 0.0, 0.0, 1.6511855365943673E9, 0.0, 2022-04-28 15:38:56.594
60.0, -11873.052909528837, -761.0415917332284, 8531.29148342181, -3224.4351546471007, -0.04800000227987766, -0.17600000835955143, 0.9760000463575125, 0.0, 0.0, 0.0, 0.0, 0.0, 1.6511855365943673E9, 0.0, 2022-04-28 15:38:56.594
61.0, -12111.959588648286, -685.559190927539, 8455.352814821526, -3432.2071666354313, -0.04800000227987766, -0.17600000835955143, 0.9760000463575125, 0.0, 0.0, 0.0, 0.0, 0.0, 1.6511855365950837E9, 0.0, 2022-04-28 15:38:56.595
61.0, -12230.054409549106, -821.9683019113727, 8607.574222818017, -3363.585612298455, -0.04800000227987766, -0.17600000835955143, 0.9760000463575125, 0.0, 0.0, 0.0, 0.0, 0.0, 1.6511855365950837E9, 0.0, 2022-04-28 15:38:56.595
62.0, -12395.025136494543, -843.962653550785, 8699.205511632375, -3315.006181824021, -0.04800000227987766, -0.17600000835955143, 0.9760000463575125, 0.0, 0.0, 0.0, 0.0, 0.0, 1.651185536625009E9, 0.0, 2022-04-28 15:38:56.625
62.0, -12626.216402005404, -906.9481786545366, 8757.983649285976, -3451.1778091606684, -0.04800000227987766, -0.17600000835955143, 0.9760000463575125, 0.0, 0.0, 0.0, 0.0, 0.0, 1.651185536625009E9, 0.0, 2022-04-28 15:38:56.625
63.0, -12702.00547460746, -701.3602682403289, 8660.774299687706, -3573.8091287077405, -0.04800000227987766, -0.17600000835955143, 0.9760000463575125, 0.0, 0.0, 0.0, 0.0, 0.0, 1.6511855366258092E9, 0.0, 2022-04-28 15:38:56.625
63.0, -12839.18126508221, -542.6445239707828, 8809.334345627576, -3777.614976793062, -0.04800000227987766, -0.17600000835955143, 0.9760000463575125, 0.0, 0.0, 0.0, 0.0, 0.0, 1.6511855366258092E9, 0.0, 2022-04-28 15:38:56.625
64.0, -12724.699187538587, -614.4674326698296, 8574.274153612554, -3959.6751765860245, -0.04800000227987766, -0.17600000835955143, 0.9760000463575125, 0.0, 0.0, 0.0, 0.0, 0.0, 1.6511855366264944E9, 0.0, 2022-04-28 15:38:56.626
64.0, -12649.564597428776, -390.73539762059227, 8811.96910514636, -4070.0340144285, -0.04800000227987766, -0.17600000835955143, 0.9760000463575125, 0.0, 0.0, 0.0, 0.0, 0.0, 1.6511855366264944E9, 0.0, 2022-04-28 15:38:56.626
65.0, -12760.119780018926, -523.9730734420009, 8966.266157618258, -4008.970797901973, -0.04800000227987766, -0.17600000835955143, 0.9760000463575125, 0.0, 0.0, 0.0, 0.0, 0.0, 1.651185536638626E9, 0.0, 2022-04-28 15:38:56.638
65.0, -12857.39457786642, -288.1405920861289, 8994.842733179685, -4176.477177017368, -0.04800000227987766, -0.17600000835955143, 0.9760000463575125, 0.0, 0.0, 0.0, 0.0, 0.0, 1.651185536638626E9, 0.0, 2022-04-28 15:38:56.638
66.0, -13092.965266225394, -182.50711783766747, 8937.738200756256, -4415.223040438723, -0.04800000227987766, -0.17600000835955143, 0.9760000463575125, 0.0, 0.0, 0.0, 0.0, 0.0, 1.6511855366543343E9, 0.0, 2022-04-28 15:38:56.654
66.0, -13208.40849805763, -332.6491414587945, 9100.206934631336, -4340.808381070383, -0.04800000227987766, -0.17600000835955143, 0.9760000463575125, 0.0, 0.0, 0.0, 0.0, 0.0, 1.6511855366543343E9, 0.0, 2022-04-28 15:38:56.654
67.0, -13379.134931034874, -418.1544741457328, 9251.242794341873, -4289.985010622535, -0.04800000227987766, -0.17600000835955143, 0.9760000463575125, 0.0, 0.0, 0.0, 0.0, 0.0, 1.6511855366550648E9, 0.0, 2022-04-28 15:38:56.655
67.0, -13607.24077908229, -385.23587473575026, 9169.365164611954, -4381.41995468922, -0.04800000227987766, -0.17600000835955143, 0.9760000463575125, 0.0, 0.0, 0.0, 0.0, 0.0, 1.6511855366550648E9, 0.0, 2022-04-28 15:38:56.655
