%OpenBCI Raw EEG Data
%Number of channels = 4
%Sample Rate = 200 Hz
%Board = OpenBCI_GUI$BoardGanglionBLE
Sample Index, EXG Channel 0, EXG Channel 1, EXG Channel 2, EXG Channel 3, Accel Channel 0, Accel Channel 1, Accel Channel 2, Other, Other, Other, Other, Other, Timestamp, Other, Timestamp (Formatted)
2.0, 59.02310110069811, -8.138022303581238, 73.49651392921805, -128.88443227298558, 0.144000006839633, 0.0, 0.0, 0.0, 0.0, 0.0, 0.0, 0.0, 1.6476302143774319E9, 0.0, 2022-03-18 12:03:34.377
2.0, -6.8552366187796, -41.647525906562805, -23.7895036181435, 65.13035772833973, 0.144000006839633, 0.0, 0.0, 0.0, 0.0, 0.0, 0.0, 0.0, 1.6476302143774319E9, 0.0, 2022-03-18 12:03:34.377
3.0, 41.18751821201295, 19.226825672201812, 68.94879558309913, -133.42467081919312, 0.144000006839633, 0.0, 0.0, 0.0, 0.0, 0.0, 0.0, 0.0, 1.6476302143918667E9, 0.0, 2022-03-18 12:03:34.391
3.0, 46.498176149092615, -57.24290872178972, 29.489111150614917, -25.79782989434898, 0.144000006839633, 0.0, 0.0, 0.0, 0.0, 0.0, 0.0, 0.0, 1.6476302143918667E9, 0.0, 2022-03-18 12:03:34.391
4.0, 1.1369295865297318, -65.33605222590268, -28.62145436089486, 90.008172233589, 0.144000006839633, 0.0, 0.0, 0.0, 0.0, 0.0, 0.0, 0.0, 1.6476302143926084E9, 0.0, 2022-03-18 12:03:34.392
4.0, 15.28871101886034, 29.642447048798203, 38.27413614653051, -87.3752826647833, 0.144000006839633, 0.0, 0.0, 0.0, 0.0, 0.0, 0.0, 0.0, 1.6476302143926084E9, 0.0, 2022-03-18 12:03:34.392
5.0, 58.69025000464171, -36.871673663146794, 58.25642160978168, -78.45936117041856, 0.144000006839633, 0.0, 0.0, 0.0, 0.0, 0.0, 0.0, 0.0, 1.6476302144061985E9, 0.0, 2022-03-18 12:03:34.406
5.0, 14.335036530159414, -70.80004606116563, -17.188580196350813, 74.14351662155241, 0.144000006839633, 0.0, 0.0, 0.0, 0.0, 0.0, 0.0, 0.0, 1.6476302144061985E9, 0.0, 2022-03-18 12:03:34.406
6.0, -2.498253170400858, 3.8109580548480153, -0.3178914962336421, -1.8362908782437444, 0.144000006839633, 0.0, 0.0, 0.0, 0.0, 0.0, 0.0, 0.0, 1.6476302144218802E9, 0.0, 2022-03-18 12:03:34.421
6.0, 57.0633935239166, -11.369295865297318, 74.3305116193369, -126.36373970285058, 0.144000006839633, 0.0, 0.0, 0.0, 0.0, 0.0, 0.0, 0.0, 1.6476302144218802E9, 0.0, 2022-03-18 12:03:34.421
7.0, 27.7537975711748, -61.04264707677066, 2.053205075673759, 32.93355900980532, 0.144000006839633, 0.0, 0.0, 0.0, 0.0, 0.0, 0.0, 0.0, 1.6476302144226117E9, 0.0, 2022-03-18 12:03:34.422
7.0, -6.754259319975972, -38.95105803851038, -22.723632130771875, 64.5132742356509, 0.144000006839633, 0.0, 0.0, 0.0, 0.0, 0.0, 0.0, 0.0, 1.6476302144226117E9, 0.0, 2022-03-18 12:03:34.422
8.0, 38.879999939352274, 19.039830674417317, 62.76674095634371, -127.42587129026651, 0.144000006839633, 0.0, 0.0, 0.0, 0.0, 0.0, 0.0, 0.0, 1.647630214436196E9, 0.0, 2022-03-18 12:03:34.436
8.0, 46.29248165152967, -58.46211610734463, 31.071088831871748, -24.301869912073016, 0.144000006839633, 0.0, 0.0, 0.0, 0.0, 0.0, 0.0, 0.0, 1.647630214436196E9, 0.0, 2022-03-18 12:03:34.436
9.0, -0.7031011916697025, -63.350165349431336, -30.080015343613923, 92.73081940133125, 0.144000006839633, 0.0, 0.0, 0.0, 0.0, 0.0, 0.0, 0.0, 1.6476302144519336E9, 0.0, 2022-03-18 12:03:34.451
9.0, 17.087602897547185, 30.9401923334226, 36.2770295701921, -89.61922263819724, 0.144000006839633, 0.0, 0.0, 0.0, 0.0, 0.0, 0.0, 0.0, 1.6476302144519336E9, 0.0, 2022-03-18 12:03:34.451
10.0, 58.521954506635666, -39.665378930047154, 53.697483563795686, -79.68978825584054, 0.144000006839633, 0.0, 0.944000044837594, 0.0, 0.0, 0.0, 0.0, 0.0, 1.6476302144526067E9, 0.0, 2022-03-18 12:03:34.452
10.0, 15.7113197138533, -71.57046545203775, -18.602262379601598, 74.8503577131778, 0.144000006839633, 0.0, 0.944000044837594, 0.0, 0.0, 0.0, 0.0, 0.0, 1.6476302144526067E9, 0.0, 2022-03-18 12:03:34.452
11.0, -3.018099264241755, 5.142362439073622, 2.1055636750534177, -3.8820161540061235, 0.144000006839633, 0.25600001215934753, 0.944000044837594, 0.0, 0.0, 0.0, 0.0, 0.0, 1.6476302144662044E9, 0.0, 2022-03-18 12:03:34.466
11.0, 59.12781829945743, -10.770911872386932, 74.63718341570348, -127.95319718401879, 0.144000006839633, 0.25600001215934753, 0.944000044837594, 0.0, 0.0, 0.0, 0.0, 0.0, 1.6476302144662044E9, 0.0, 2022-03-18 12:03:34.466
12.0, 28.10160826705396, -61.57371287047863, 3.661362056620419, 28.53917656186968, 0.144000006839633, 0.25600001215934753, 0.944000044837594, 0.0, 0.0, 0.0, 0.0, 0.0, 1.6476302144819489E9, 0.0, 2022-03-18 12:03:34.481
12.0, -5.400415536016226, -39.76261632889509, -23.565109620802104, 67.00030770618469, 0.144000006839633, 0.25600001215934753, 0.944000044837594, 0.0, 0.0, 0.0, 0.0, 0.0, 1.6476302144819489E9, 0.0, 2022-03-18 12:03:34.481
13.0, 41.647525906562805, 19.74667176604271, 64.87230463139713, -131.5397612415254, 0.144000006839633, 0.25600001215934753, 0.944000044837594, 0.0, 0.0, 0.0, 0.0, 0.0, 1.647630214482594E9, 0.0, 2022-03-18 12:03:34.482
13.0, 43.49129658471793, -55.86662553809583, 31.691912224516273, -19.099669073708355, 0.144000006839633, 0.25600001215934753, 0.944000044837594, 0.0, 0.0, 0.0, 0.0, 0.0, 1.647630214482594E9, 0.0, 2022-03-18 12:03:34.482
14.0, -0.5759445931762457, -65.89703721925616, -30.663439736701548, 93.80417068861425, 0.144000006839633, 0.25600001215934753, 0.944000044837594, 0.0, 0.0, 0.0, 0.0, 0.0, 1.647630214496199E9, 0.0, 2022-03-18 12:03:34.496
14.0, 18.796737177297473, 30.895313533954322, 39.31756823416799, -90.707533525303, 0.144000006839633, 0.25600001215934753, 0.944000044837594, 0.0, 0.0, 0.0, 0.0, 0.0, 1.647630214496199E9, 0.0, 2022-03-18 12:03:34.496
15.0, 62.602185358293355, -42.30948819871992, 58.43219690769911, -80.87907644174993, 0.144000006839633, 0.25600001215934753, 0.944000044837594, 0.0, 0.0, 0.0, 0.0, 0.0, 1.6476302145119264E9, 0.0, 2022-03-18 12:03:34.511
15.0, 14.757645225152373, -72.36332424264401, -16.56775680370629, 73.58253162819892, 0.144000006839633, 0.25600001215934753, 0.944000044837594, 0.0, 0.0, 0.0, 0.0, 0.0, 1.6476302145119264E9, 0.0, 2022-03-18 12:03:34.511
16.0, -2.905902265571058, 5.845463630743325, 4.162508650682867, -11.358076165430248, 0.144000006839633, 0.25600001215934753, 0.944000044837594, 0.0, 0.0, 0.0, 0.0, 0.0, 1.6476302145125911E9, 0.0, 2022-03-18 12:03:34.512
16.0, 58.49577520694584, -9.996752581559122, 77.10177748650312, -126.57317410036922, 0.144000006839633, 0.25600001215934753, 0.944000044837594, 0.0, 0.0, 0.0, 0.0, 0.0, 1.6476302145125911E9, 0.0, 2022-03-18 12:03:34.512
17.0, 26.17181988991797, -63.036013753153384, 1.1107502868399024, 30.21091184206307, 0.144000006839633, 0.25600001215934753, 0.944000044837594, 0.0, 0.0, 0.0, 0.0, 0.0, 1.6476302145262477E9, 0.0, 2022-03-18 12:03:34.526
17.0, -7.405001912266016, -37.275582858361304, -21.455806045792997, 64.72644853312522, 0.144000006839633, 0.25600001215934753, 0.944000044837594, 0.0, 0.0, 0.0, 0.0, 0.0, 1.6476302145262477E9, 0.0, 2022-03-18 12:03:34.526
18.0, 39.52326273173094, 22.465579033829272, 67.71836849767715, -131.60707944072783, 0.144000006839633, 0.25600001215934753, 0.944000044837594, 0.0, 0.0, 0.0, 0.0, 0.0, 1.647630214542025E9, 0.0, 2022-03-18 12:03:34.542
18.0, 45.731496658176184, -56.543547430075705, 32.73908421210945, -20.10196226183325, 0.144000006839633, 0.25600001215934753, 0.944000044837594, 0.0, 0.0, 0.0, 0.0, 0.0, 1.647630214542025E9, 0.0, 2022-03-18 12:03:34.542
19.0, -0.8938360894098878, -66.2560676150024, -32.17435931880027, 92.0426778094843, 0.144000006839633, 0.25600001215934753, 0.944000044837594, 0.0, 0.0, 0.0, 0.0, 0.0, 1.6476302145426002E9, 0.0, 2022-03-18 12:03:34.542
19.0, 19.982285463251173, 33.78999609965831, 37.85900725144893, -93.48253929242492, 0.144000006839633, 0.25600001215934753, 0.944000044837594, 0.0, 0.0, 0.0, 0.0, 0.0, 1.6476302145426002E9, 0.0, 2022-03-18 12:03:34.542
20.0, 59.729942192323506, -42.844293892383575, 55.81426693871617, -74.94011531211436, 0.144000006839633, 0.25600001215934753, 0.944000044837594, 0.0, 0.0, 0.0, 0.0, 0.0, 1.647630214556184E9, 0.0, 2022-03-18 12:03:34.556
20.0, 10.598876474425197, -74.84287791326642, -16.175067308358848, 77.1092572864145, 0.144000006839633, 0.25600001215934753, 0.944000044837594, 0.0, 0.0, 0.0, 0.0, 0.0, 1.647630214556184E9, 0.0, 2022-03-18 12:03:34.556
21.0, -2.490773370489478, 8.758845696225762, 2.053205075673759, -6.4588072234764695, 0.144000006839633, 0.25600001215934753, 0.944000044837594, 0.0, 0.0, 0.0, 0.0, 0.0, 1.647630214571917E9, 0.0, 2022-03-18 12:03:34.571
21.0, 58.84732580278069, -11.017745269462466, 73.73212762642652, -127.45579048991203, 0.144000006839633, 0.25600001215934753, 0.944000044837594, 0.0, 0.0, 0.0, 0.0, 0.0, 1.647630214571917E9, 0.0, 2022-03-18 12:03:34.571
22.0, 27.125494378618896, -66.21118881553411, -0.1084570987150073, 31.949965321458876, 0.144000006839633, 0.25600001215934753, 0.944000044837594, 0.0, 0.0, 0.0, 0.0, 0.0, 1.647630214572594E9, 0.0, 2022-03-18 12:03:34.572
22.0, -3.736160055734217, -36.09377447236329, -22.854528629221022, 64.97328193020076, 0.144000006839633, 0.25600001215934753, 0.944000044837594, 0.0, 0.0, 0.0, 0.0, 0.0, 1.647630214572594E9, 0.0, 2022-03-18 12:03:34.572
23.0, 44.29537507519126, 19.27544437162578, 66.50664091203362, -131.27796824462712, 0.144000006839633, 0.25600001215934753, 0.944000044837594, 0.0, 0.0, 0.0, 0.0, 0.0, 1.6476302145861857E9, 0.0, 2022-03-18 12:03:34.586
23.0, 44.96107726730406, -59.88327809050679, 29.986517844721675, -19.555936868302524, 0.144000006839633, 0.25600001215934753, 0.944000044837594, 0.0, 0.0, 0.0, 0.0, 0.0, 1.6476302145861857E9, 0.0, 2022-03-18 12:03:34.586
24.0, -0.7367602912709117, -66.2897267146036, -29.548949549905956, 90.56541732698679, 0.144000006839633, 0.25600001215934753, 0.944000044837594, 0.0, 0.0, 0.0, 0.0, 0.0, 1.647630214601868E9, 0.0, 2022-03-18 12:03:34.601
24.0, 16.605155803263187, 30.285709841176867, 38.23673714697361, -90.38590212911367, 0.144000006839633, 0.25600001215934753, 0.944000044837594, 0.0, 0.0, 0.0, 0.0, 0.0, 1.647630214601868E9, 0.0, 2022-03-18 12:03:34.601
25.0, 57.81511341501027, -41.47549050860107, 57.4710426190868, -72.13893024530262, 0.144000006839633, 0.25600001215934753, 0.944000044837594, 0.0, 0.0, 0.0, 0.0, 0.0, 1.6476302146025915E9, 0.0, 2022-03-18 12:03:34.602
25.0, 10.363262777216733, -71.5181068526581, -21.975652139633894, 78.56033846922219, 0.144000006839633, 0.25600001215934753, 0.944000044837594, 0.0, 0.0, 0.0, 0.0, 0.0, 1.6476302146025915E9, 0.0, 2022-03-18 12:03:34.602
26.0, -0.6881415918469429, 7.5059792110696435, 1.0733512872830033, -9.095436692237854, 0.144000006839633, 0.25600001215934753, 0.944000044837594, 0.0, 0.0, 0.0, 0.0, 0.0, 1.6476302146325724E9, 0.0, 2022-03-18 12:03:34.632
26.0, 61.382977972738445, -8.654128497466445, 74.52872631698847, -124.81542112119496, 0.144000006839633, 0.25600001215934753, 0.944000044837594, 0.0, 0.0, 0.0, 0.0, 0.0, 1.6476302146325724E9, 0.0, 2022-03-18 12:03:34.632
27.0, 24.271950712427497, -65.05181982927024, 1.3762831836938858, 36.15361287165433, 0.144000006839633, 0.25600001215934753, 0.944000044837594, 0.0, 0.0, 0.0, 0.0, 0.0, 1.647630214633301E9, 0.0, 2022-03-18 12:03:34.633
27.0, -7.778991907835007, -33.80869559943676, -22.256144636310637, 63.769034144468606, 0.144000006839633, 0.25600001215934753, 0.944000044837594, 0.0, 0.0, 0.0, 0.0, 0.0, 1.647630214633301E9, 0.0, 2022-03-18 12:03:34.633
28.0, 42.60120039526373, 19.469919169321656, 66.05411301739514, -132.2129432335496, 0.144000006839633, 0.25600001215934753, 0.944000044837594, 0.0, 0.0, 0.0, 0.0, 0.0, 1.6476302146340528E9, 0.0, 2022-03-18 12:03:34.634
28.0, 46.71509034652263, -57.81511341501027, 29.74342434760183, -16.713612901978195, 0.144000006839633, 0.25600001215934753, 0.944000044837594, 0.0, 0.0, 0.0, 0.0, 0.0, 1.6476302146340528E9, 0.0, 2022-03-18 12:03:34.634
29.0, -0.8078183904290199, -63.12577135208994, -27.3835474755615, 94.10336268506944, 0.144000006839633, 0.25600001215934753, 0.944000044837594, 0.0, 0.0, 0.0, 0.0, 0.0, 1.647630214646171E9, 0.0, 2022-03-18 12:03:34.646
29.0, 19.73545206617564, 31.43011922761798, 41.50914960820228, -93.89018838759512, 0.144000006839633, 0.25600001215934753, 0.944000044837594, 0.0, 0.0, 0.0, 0.0, 0.0, 1.647630214646171E9, 0.0, 2022-03-18 12:03:34.646
30.0, 61.54005377087742, -44.852620168589056, 60.4741822835058, -75.97606759984046, 0.144000006839633, 0.25600001215934753, 0.944000044837594, 0.0, 0.0, 0.0, 0.0, 0.0, 1.6476302146619084E9, 0.0, 2022-03-18 12:03:34.661
30.0, 13.003632145933807, -72.98414763528854, -18.47510578110814, 79.90670245327055, 0.144000006839633, 0.25600001215934753, 0.944000044837594, 0.0, 0.0, 0.0, 0.0, 0.0, 1.6476302146619084E9, 0.0, 2022-03-18 12:03:34.661
31.0, 0.056098499335348606, 8.317537501454353, 4.577637545764446, -10.621315874159336, 0.144000006839633, 0.2400000113993883, 0.944000044837594, 0.0, 0.0, 0.0, 0.0, 0.0, 1.6476302146626303E9, 0.0, 2022-03-18 12:03:34.662
31.0, 59.23627539817244, -11.219699867069721, 75.71427460294217, -126.3188609033823, 0.144000006839633, 0.2400000113993883, 0.944000044837594, 0.0, 0.0, 0.0, 0.0, 0.0, 1.6476302146626303E9, 0.0, 2022-03-18 12:03:34.662
32.0, 24.21585221309215, -63.021054153330624, 0.06731819920241833, 36.29198917001486, 0.12800000607967377, 0.2400000113993883, 0.944000044837594, 0.0, 0.0, 0.0, 0.0, 0.0, 1.6476302146761672E9, 0.0, 2022-03-18 12:03:34.676
32.0, -3.9268949534744024, -35.87686027493328, -24.657160407863557, 63.23048855084926, 0.12800000607967377, 0.2400000113993883, 0.944000044837594, 0.0, 0.0, 0.0, 0.0, 0.0, 1.6476302146761672E9, 0.0, 2022-03-18 12:03:34.676
33.0, 41.96915730275214, 19.858868764713407, 66.88811070751399, -134.37460540793836, 0.12800000607967377, 0.2400000113993883, 0.944000044837594, 0.0, 0.0, 0.0, 0.0, 0.0, 1.647630214691898E9, 0.0, 2022-03-18 12:03:34.691
33.0, 40.802308516576886, -59.25871479790658, 27.630380872637033, -18.377868382260203, 0.12800000607967377, 0.2400000113993883, 0.944000044837594, 0.0, 0.0, 0.0, 0.0, 0.0, 1.647630214691898E9, 0.0, 2022-03-18 12:03:34.691
34.0, -0.5348056936636567, -64.79002683237195, -32.33891491685063, 94.05100408568978, 0.12800000607967377, 0.2400000113993883, 0.944000044837594, 0.0, 0.0, 0.0, 0.0, 0.0, 1.6476302146926332E9, 0.0, 2022-03-18 12:03:34.692
34.0, 16.324663306586444, 33.80121579952538, 41.277275810949504, -97.17382054869086, 0.12800000607967377, 0.2400000113993883, 0.944000044837594, 0.0, 0.0, 0.0, 0.0, 0.0, 1.6476302146926332E9, 0.0, 2022-03-18 12:03:34.692
35.0, 59.90571749024093, -46.70387064665556, 57.14567132294178, -78.81839156616479, 0.12800000607967377, 0.2400000113993883, 0.944000044837594, 0.0, 0.0, 0.0, 0.0, 0.0, 1.6476302147061605E9, 0.0, 2022-03-18 12:03:34.706
35.0, 8.594290098175406, -70.54573286417872, -22.390781034715474, 80.06751815136522, 0.12800000607967377, 0.2400000113993883, 0.944000044837594, 0.0, 0.0, 0.0, 0.0, 0.0, 1.6476302147061605E9, 0.0, 2022-03-18 12:03:34.706
36.0, -1.047171987593174, 10.138868779875338, 3.4369680592790246, -10.135128879919648, 0.12800000607967377, 0.2400000113993883, 0.944000044837594, 0.0, 0.0, 0.0, 0.0, 0.0, 1.647630214721883E9, 0.0, 2022-03-18 12:03:34.721
36.0, 59.66636389307678, -14.854882624000311, 73.24968053214252, -126.67041149921715, 0.12800000607967377, 0.2400000113993883, 0.944000044837594, 0.0, 0.0, 0.0, 0.0, 0.0, 1.647630214721883E9, 0.0, 2022-03-18 12:03:34.721
37.0, 27.7911965707317, -62.84901875536889, -0.3702500956133008, 34.825948387384415, 0.12800000607967377, 0.2400000113993883, 0.944000044837594, 0.0, 0.0, 0.0, 0.0, 0.0, 1.647630214722624E9, 0.0, 2022-03-18 12:03:34.722
37.0, -8.814944195561111, -34.365940692834556, -21.508164645172656, 65.72500182129443, 0.12800000607967377, 0.2400000113993883, 0.944000044837594, 0.0, 0.0, 0.0, 0.0, 0.0, 1.647630214722624E9, 0.0, 2022-03-18 12:03:34.722
38.0, 47.11525964178145, 16.620115403085947, 67.39673710148782, -132.52335492987186, 0.12800000607967377, 0.2400000113993883, 0.944000044837594, 0.0, 0.0, 0.0, 0.0, 0.0, 1.6476302147361815E9, 0.0, 2022-03-18 12:03:34.736
38.0, 41.217437411658466, -54.935390449129045, 28.20258556585759, -19.095929173752666, 0.12800000607967377, 0.2400000113993883, 0.944000044837594, 0.0, 0.0, 0.0, 0.0, 0.0, 1.6476302147361815E9, 0.0, 2022-03-18 12:03:34.736
39.0, -2.5506117697805166, -61.70460936892778, -33.199091906659305, 96.24632535967976, 0.12800000607967377, 0.2400000113993883, 0.944000044837594, 0.0, 0.0, 0.0, 0.0, 0.0, 1.6476302147518857E9, 0.0, 2022-03-18 12:03:34.751
39.0, 22.60769523214549, 31.755490523763, 41.16133891232312, -94.59702947922051, 0.12800000607967377, 0.2400000113993883, 0.944000044837594, 0.0, 0.0, 0.0, 0.0, 0.0, 1.6476302147518857E9, 0.0, 2022-03-18 12:03:34.751
40.0, 58.159184210933745, -44.81148126907647, 54.26968825701624, -72.6625162390992, 0.12800000607967377, 0.2400000113993883, 0.9600000455975533, 0.0, 0.0, 0.0, 0.0, 0.0, 1.6476302147526166E9, 0.0, 2022-03-18 12:03:34.752
40.0, 10.755952272564173, -69.39384367782623, -21.74751824233681, 78.08537117484957, 0.12800000607967377, 0.2400000113993883, 0.9600000455975533, 0.0, 0.0, 0.0, 0.0, 0.0, 1.6476302147526166E9, 0.0, 2022-03-18 12:03:34.752
41.0, -0.35155059583485126, 10.44180067628622, 2.6029703691601753, -14.533251227810979, 0.12800000607967377, 0.2400000113993883, 0.9600000455975533, 0.0, 0.0, 0.0, 0.0, 0.0, 1.6476302147661617E9, 0.0, 2022-03-18 12:03:34.766
41.0, 61.60737197007984, -14.136821832507849, 76.80258549004793, -123.45035763736814, 0.12800000607967377, 0.2400000113993883, 0.9600000455975533, 0.0, 0.0, 0.0, 0.0, 0.0, 1.6476302147661617E9, 0.0, 2022-03-18 12:03:34.766
42.0, 23.179899925366044, -67.72210839763284, 1.768972679041326, 35.73848397657275, 0.144000006839633, 0.2400000113993883, 0.9600000455975533, 0.0, 0.0, 0.0, 0.0, 0.0, 1.6476302147818978E9, 0.0, 2022-03-18 12:03:34.781
42.0, -7.771512107923627, -34.30610229354352, -22.712412430904806, 59.54294719453901, 0.144000006839633, 0.2400000113993883, 0.9600000455975533, 0.0, 0.0, 0.0, 0.0, 0.0, 1.6476302147818978E9, 0.0, 2022-03-18 12:03:34.781
43.0, 48.79073482193053, 17.581269691698253, 66.19996911566705, -135.44421679526567, 0.144000006839633, 0.2400000113993883, 0.9600000455975533, 0.0, 0.0, 0.0, 0.0, 0.0, 1.647630214782618E9, 0.0, 2022-03-18 12:03:34.782
43.0, 44.13829927705228, -57.01103492453694, 26.699145783670247, -16.635075002908707, 0.144000006839633, 0.2400000113993883, 0.9600000455975533, 0.0, 0.0, 0.0, 0.0, 0.0, 1.647630214782618E9, 0.0, 2022-03-18 12:03:34.782
44.0, -2.300038472749293, -60.960369277745485, -30.54376293811947, 87.7081337608397, 0.144000006839633, 0.2400000113993883, 0.9600000455975533, 0.0, 0.0, 0.0, 0.0, 0.0, 1.6476302147961743E9, 0.0, 2022-03-18 12:03:34.796
44.0, 20.730265454389155, 34.54545589070767, 43.15096568875015, -94.94484017509967, 0.144000006839633, 0.2400000113993883, 0.9600000455975533, 0.0, 0.0, 0.0, 0.0, 0.0, 1.6476302147961743E9, 0.0, 2022-03-18 12:03:34.796
45.0, 57.702916416339576, -44.078460877761245, 59.737421992234886, -73.26090023200959, 0.144000006839633, 0.2400000113993883, 0.9600000455975533, 0.0, 0.0, 0.0, 0.0, 0.0, 1.6476302148118932E9, 0.0, 2022-03-18 12:03:34.811
45.0, 8.220300102606416, -70.05580596998334, -18.430226981639862, 78.92310876492411, 0.144000006839633, 0.2400000113993883, 0.9600000455975533, 0.0, 0.0, 0.0, 0.0, 0.0, 1.6476302148118932E9, 0.0, 2022-03-18 12:03:34.811
46.0, -0.5348056936636567, 11.346856465563178, 1.006033088080585, -13.29908424243331, 0.144000006839633, 0.2400000113993883, 0.9600000455975533, 0.0, 0.0, 0.0, 0.0, 0.0, 1.6476302148126209E9, 0.0, 2022-03-18 12:03:34.812
46.0, 59.9543361896649, -14.305117330513895, 77.79739887826145, -125.87755270861089, 0.144000006839633, 0.2400000113993883, 0.9600000455975533, 0.0, 0.0, 0.0, 0.0, 0.0, 1.6476302148126209E9, 0.0, 2022-03-18 12:03:34.812
47.0, 27.31622927635908, -64.98450163006783, -0.9574143886566162, 36.76321656443179, 0.144000006839633, 0.2400000113993883, 0.9600000455975533, 0.0, 0.0, 0.0, 0.0, 0.0, 1.6476302148262403E9, 0.0, 2022-03-18 12:03:34.826
47.0, -5.1311427392065525, -36.800615563988686, -20.54701035656035, 58.25268170982599, 0.144000006839633, 0.2400000113993883, 0.9600000455975533, 0.0, 0.0, 0.0, 0.0, 0.0, 1.6476302148262403E9, 0.0, 2022-03-18 12:03:34.826
48.0, 44.415051873773336, 18.419007281772792, 70.93094255961478, -136.8803383782506, 0.144000006839633, 0.2400000113993883, 0.9600000455975533, 0.0, 0.0, 0.0, 0.0, 0.0, 1.6476302148418941E9, 0.0, 2022-03-18 12:03:34.841
48.0, 41.90557900350541, -56.906317725777626, 30.54750283807516, -14.346256230026484, 0.144000006839633, 0.2400000113993883, 0.9600000455975533, 0.0, 0.0, 0.0, 0.0, 0.0, 1.6476302148418941E9, 0.0, 2022-03-18 12:03:34.841
49.0, -1.368803383782506, -63.60821844637394, -30.480184638872743, 91.9678798103705, 0.144000006839633, 0.2400000113993883, 0.9600000455975533, 0.0, 0.0, 0.0, 0.0, 0.0, 1.647630214842624E9, 0.0, 2022-03-18 12:03:34.842
49.0, 21.246371648274362, 29.76960364729166, 44.6132665714249, -99.1559675252065, 0.144000006839633, 0.2400000113993883, 0.9600000455975533, 0.0, 0.0, 0.0, 0.0, 0.0, 1.647630214842624E9, 0.0, 2022-03-18 12:03:34.842
50.0, 61.12492487579584, -47.03672174271196, 53.802200762555, -71.51062705274671, 0.144000006839633, 0.2400000113993883, 0.944000044837594, 0.0, 0.0, 0.0, 0.0, 0.0, 1.6476302148562212E9, 0.0, 2022-03-18 12:03:34.856
50.0, 6.2568526258692145, -69.64815687481314, -21.452066145837307, 81.21940733771771, 0.144000006839633, 0.2400000113993883, 0.944000044837594, 0.0, 0.0, 0.0, 0.0, 0.0, 1.6476302148562212E9, 0.0, 2022-03-18 12:03:34.856
51.0, -1.3949826834723353, 12.700700249522924, 0.9536744887009263, -16.193766808137298, 0.144000006839633, 0.2400000113993883, 0.944000044837594, 0.0, 0.0, 0.0, 0.0, 0.0, 1.647630214871886E9, 0.0, 2022-03-18 12:03:34.871
51.0, 65.1041784286499, -15.31115041859448, 77.0344592873007, -123.12498634122312, 0.144000006839633, 0.2400000113993883, 0.944000044837594, 0.0, 0.0, 0.0, 0.0, 0.0, 1.647630214871886E9, 0.0, 2022-03-18 12:03:34.871
52.0, 24.013897615484893, -65.57540582306683, -2.8311042664572597, 40.93694491498172, 0.144000006839633, 0.2400000113993883, 0.944000044837594, 0.0, 0.0, 0.0, 0.0, 0.0, 1.6476302148726246E9, 0.0, 2022-03-18 12:03:34.872
52.0, -10.785871472209692, -33.41226620413363, -21.826056141406298, 62.08607916440815, 0.144000006839633, 0.2400000113993883, 0.944000044837594, 0.0, 0.0, 0.0, 0.0, 0.0, 1.6476302148726246E9, 0.0, 2022-03-18 12:03:34.872
53.0, 48.98146971967071, 17.009064998477697, 66.91802990715951, -137.6993764685467, 0.144000006839633, 0.2400000113993883, 0.944000044837594, 0.0, 0.0, 0.0, 0.0, 0.0, 1.6476302148862169E9, 0.0, 2022-03-18 12:03:34.886
53.0, 44.474890273064375, -59.004401600919664, 26.99085798021406, -9.136575591750443, 0.144000006839633, 0.2400000113993883, 0.944000044837594, 0.0, 0.0, 0.0, 0.0, 0.0, 1.6476302148862169E9, 0.0, 2022-03-18 12:03:34.886
54.0, -3.1190765630453825, -59.307333497330546, -30.659699836745858, 92.31943040620536, 0.144000006839633, 0.2400000113993883, 0.944000044837594, 0.0, 0.0, 0.0, 0.0, 0.0, 1.6476302149018807E9, 0.0, 2022-03-18 12:03:34.901
54.0, 18.639661379158497, 34.033089596778154, 43.42397838551551, -100.68932650703937, 0.144000006839633, 0.2400000113993883, 0.944000044837594, 0.0, 0.0, 0.0, 0.0, 0.0, 1.6476302149018807E9, 0.0, 2022-03-18 12:03:34.901
55.0, 59.9917351892218, -44.23927657585591, 57.02225462440401, -72.46430154144764, 0.144000006839633, 0.2400000113993883, 0.944000044837594, 0.0, 0.0, 0.0, 0.0, 0.0, 1.6476302149026136E9, 0.0, 2022-03-18 12:03:34.902
55.0, 9.465686787851155, -68.87399758398533, -21.631581343710423, 82.09828382730484, 0.144000006839633, 0.2400000113993883, 0.944000044837594, 0.0, 0.0, 0.0, 0.0, 0.0, 1.6476302149026136E9, 0.0, 2022-03-18 12:03:34.902
56.0, 2.135482874698937, 8.497052699327469, 4.716013844124973, -18.10859558545053, 0.144000006839633, 0.2400000113993883, 0.944000044837594, 0.0, 0.0, 0.0, 0.0, 0.0, 1.6476302149162183E9, 0.0, 2022-03-18 12:03:34.916
56.0, 63.94480944238603, -16.721092701889575, 74.8129587136209, -123.00530954264104, 0.144000006839633, 0.2400000113993883, 0.944000044837594, 0.0, 0.0, 0.0, 0.0, 0.0, 1.6476302149162183E9, 0.0, 2022-03-18 12:03:34.916
57.0, 23.34819542337209, -61.334359273314476, -1.570757981389761, 38.28161594644189, 0.144000006839633, 0.2400000113993883, 0.944000044837594, 0.0, 0.0, 0.0, 0.0, 0.0, 1.6476302149318776E9, 0.0, 2022-03-18 12:03:34.931
57.0, -8.586810298264027, -31.79662942327559, -19.862608664669096, 58.940823301672935, 0.144000006839633, 0.2400000113993883, 0.944000044837594, 0.0, 0.0, 0.0, 0.0, 0.0, 1.6476302149318776E9, 0.0, 2022-03-18 12:03:34.931
58.0, 47.54908803664148, 18.321769882924855, 68.75058088544756, -138.14816446322948, 0.144000006839633, 0.2400000113993883, 0.944000044837594, 0.0, 0.0, 0.0, 0.0, 0.0, 1.6476302149326067E9, 0.0, 2022-03-18 12:03:34.932
58.0, 41.262316211126745, -57.83755281474441, 25.835228893905878, -15.180253920145333, 0.144000006839633, 0.2400000113993883, 0.944000044837594, 0.0, 0.0, 0.0, 0.0, 0.0, 1.6476302149326067E9, 0.0, 2022-03-18 12:03:34.932
59.0, -1.2566063851118088, -62.08981906436384, -33.86479409877211, 94.0061252862215, 0.144000006839633, 0.2400000113993883, 0.944000044837594, 0.0, 0.0, 0.0, 0.0, 0.0, 1.647630214946221E9, 0.0, 2022-03-18 12:03:34.946
59.0, 20.846202353015542, 31.908826421946287, 40.60783371888101, -101.42982669826597, 0.144000006839633, 0.2400000113993883, 0.944000044837594, 0.0, 0.0, 0.0, 0.0, 0.0, 1.647630214946221E9, 0.0, 2022-03-18 12:03:34.946
60.0, 60.522800982929766, -43.682031482458115, 53.48430926632136, -71.18525575660169, 0.144000006839633, 0.2400000113993883, 0.944000044837594, 0.0, 0.0, 0.0, 0.0, 0.0, 1.64763021496188E9, 0.0, 2022-03-18 12:03:34.961
60.0, 11.862962659448385, -69.28538657911122, -20.771404353901744, 83.58302410971373, 0.144000006839633, 0.2400000113993883, 0.944000044837594, 0.0, 0.0, 0.0, 0.0, 0.0, 1.64763021496188E9, 0.0, 2022-03-18 12:03:34.961
61.0, 2.1616621743887663, 13.65811463817954, 8.115582903847098, -23.71096571907401, 0.144000006839633, 0.2240000106394291, 0.944000044837594, 0.0, 0.0, 0.0, 0.0, 0.0, 1.6476302149626088E9, 0.0, 2022-03-18 12:03:34.962
61.0, 64.26644083857536, -16.204986508004367, 75.06353201065212, -121.58414755947888, 0.144000006839633, 0.2240000106394291, 0.944000044837594, 0.0, 0.0, 0.0, 0.0, 0.0, 1.6476302149626088E9, 0.0, 2022-03-18 12:03:34.962
62.0, 20.10944206174463, -64.40855703689158, 0.8676567897200584, 43.91764517966658, 0.144000006839633, 0.2240000106394291, 0.944000044837594, 0.0, 0.0, 0.0, 0.0, 0.0, 1.6476302149761996E9, 0.0, 2022-03-18 12:03:34.976
62.0, -6.963693717494607, -33.70023850072175, -19.914967264048755, 59.86083869077265, 0.144000006839633, 0.2240000106394291, 0.944000044837594, 0.0, 0.0, 0.0, 0.0, 0.0, 1.6476302149761996E9, 0.0, 2022-03-18 12:03:34.976
63.0, 50.81402069795877, 17.72338589001447, 71.181515856646, -136.5512271821499, 0.144000006839633, 0.2240000106394291, 0.944000044837594, 0.0, 0.0, 0.0, 0.0, 0.0, 1.6476302149918876E9, 0.0, 2022-03-18 12:03:34.991
63.0, 43.51747588440776, -63.50724114757031, 25.049849903210998, -15.767418213188648, 0.144000006839633, 0.2240000106394291, 0.944000044837594, 0.0, 0.0, 0.0, 0.0, 0.0, 1.6476302149918876E9, 0.0, 2022-03-18 12:03:34.991
64.0, -5.108703339472413, -57.65429771691561, -31.157106530852616, 92.5251249037683, 0.144000006839633, 0.2240000106394291, 0.944000044837594, 0.0, 0.0, 0.0, 0.0, 0.0, 1.64763021499262E9, 0.0, 2022-03-18 12:03:34.992
64.0, 22.465579033829272, 29.586348549462855, 47.13021924160421, -101.14559430163354, 0.144000006839633, 0.2240000106394291, 0.944000044837594, 0.0, 0.0, 0.0, 0.0, 0.0, 1.64763021499262E9, 0.0, 2022-03-18 12:03:34.992
65.0, 58.78374750353396, -47.39949203841388, 55.735729039646685, -68.61594448704273, 0.144000006839633, 0.2240000106394291, 0.944000044837594, 0.0, 0.0, 0.0, 0.0, 0.0, 1.6476302150061977E9, 0.0, 2022-03-18 12:03:35.006
65.0, 10.714813373051584, -72.83829153701663, -22.11776833795011, 84.28238540142775, 0.144000006839633, 0.2240000106394291, 0.944000044837594, 0.0, 0.0, 0.0, 0.0, 0.0, 1.6476302150061977E9, 0.0, 2022-03-18 12:03:35.006
66.0, -1.3052250845357776, 12.738099249079823, 8.06322430446744, -23.464132321998477, 0.144000006839633, 0.2240000106394291, 0.944000044837594, 0.0, 0.0, 0.0, 0.0, 0.0, 1.6476302150222712E9, 0.0, 2022-03-18 12:03:35.022
66.0, 60.133851387538016, -17.225979195907712, 76.27525959629565, -123.50645613670349, 0.144000006839633, 0.2240000106394291, 0.944000044837594, 0.0, 0.0, 0.0, 0.0, 0.0, 1.6476302150222712E9, 0.0, 2022-03-18 12:03:35.022
67.0, 24.55244320910424, -62.561046458780766, -3.0068795643746853, 37.94876485038549, 0.144000006839633, 0.2240000106394291, 0.944000044837594, 0.0, 0.0, 0.0, 0.0, 0.0, 1.647630215036882E9, 0.0, 2022-03-18 12:03:35.036
67.0, -7.685494408942759, -29.40309345163405, -21.111735249869525, 56.996075324714184, 0.144000006839633, 0.2240000106394291, 0.944000044837594, 0.0, 0.0, 0.0, 0.0, 0.0, 1.647630215036882E9, 0.0, 2022-03-18 12:03:35.036
68.0, 47.81836083345115, 18.688280078582466, 71.66770285088569, -134.78973430301994, 0.144000006839633, 0.2240000106394291, 0.944000044837594, 0.0, 0.0, 0.0, 0.0, 0.0, 1.6476302150376117E9, 0.0, 2022-03-18 12:03:35.037
68.0, 42.036475501954556, -61.52509417105466, 27.271350476890802, -9.211373590864241, 0.144000006839633, 0.2240000106394291, 0.944000044837594, 0.0, 0.0, 0.0, 0.0, 0.0, 1.6476302150376117E9, 0.0, 2022-03-18 12:03:35.037
69.0, -6.42888802383095, -57.17185062263161, -27.675259672105312, 90.14280863199383, 0.144000006839633, 0.2240000106394291, 0.944000044837594, 0.0, 0.0, 0.0, 0.0, 0.0, 1.6476302150518758E9, 0.0, 2022-03-18 12:03:35.051
69.0, 26.317675988189876, 31.624594025313854, 45.05083486624062, -103.32969587575644, 0.144000006839633, 0.2240000106394291, 0.944000044837594, 0.0, 0.0, 0.0, 0.0, 0.0, 1.6476302150518758E9, 0.0, 2022-03-18 12:03:35.051
70.0, 58.00210841279477, -46.17654475290328, 56.37899183202535, -73.20854163262993, 0.144000006839633, 0.2240000106394291, 0.9600000455975533, 0.0, 0.0, 0.0, 0.0, 0.0, 1.6476302150526156E9, 0.0, 2022-03-18 12:03:35.052
70.0, 8.03330510482192, -70.30263936705887, -18.030057686381042, 85.557691286318, 0.144000006839633, 0.2240000106394291, 0.9600000455975533, 0.0, 0.0, 0.0, 0.0, 0.0, 1.6476302150526156E9, 0.0, 2022-03-18 12:03:35.052
71.0, 0.6881415918469429, 13.882508635520935, 9.68634088523686, -25.438799498602748, 0.144000006839633, 0.20800000987946987, 0.9600000455975533, 0.0, 0.0, 0.0, 0.0, 0.0, 1.6476302150662065E9, 0.0, 2022-03-18 12:03:35.066
71.0, 64.1430241400376, -20.15058096125722, 77.48698718193918, -122.24610985163599, 0.144000006839633, 0.20800000987946987, 0.9600000455975533, 0.0, 0.0, 0.0, 0.0, 0.0, 1.6476302150662065E9, 0.0, 2022-03-18 12:03:35.066
72.0, 22.11028853803873, -59.88701799046248, -2.5954905692487955, 41.51288950815797, 0.144000006839633, 0.20800000987946987, 0.9600000455975533, 0.0, 0.0, 0.0, 0.0, 0.0, 1.6476302150818856E9, 0.0, 2022-03-18 12:03:35.081
72.0, -4.480400146916509, -34.61277408991009, -18.377868382260203, 54.22106955759227, 0.144000006839633, 0.20800000987946987, 0.9600000455975533, 0.0, 0.0, 0.0, 0.0, 0.0, 1.6476302150818856E9, 0.0, 2022-03-18 12:03:35.081
73.0, 50.44377060234547, 15.086756421253085, 74.82791831344366, -138.30150036141276, 0.144000006839633, 0.20800000987946987, 0.9600000455975533, 0.0, 0.0, 0.0, 0.0, 0.0, 1.6476302150826156E9, 0.0, 2022-03-18 12:03:35.082
73.0, 44.34025387465954, -59.352212296798825, 27.660300072282553, -9.346009989269078, 0.144000006839633, 0.20800000987946987, 0.9600000455975533, 0.0, 0.0, 0.0, 0.0, 0.0, 1.6476302150826156E9, 0.0, 2022-03-18 12:03:35.082
74.0, -3.900715653784573, -60.145071087405086, -26.98337818030268, 89.98947273381054, 0.144000006839633, 0.20800000987946987, 0.9600000455975533, 0.0, 0.0, 0.0, 0.0, 0.0, 1.6476302150962052E9, 0.0, 2022-03-18 12:03:35.096
74.0, 21.68020004313439, 32.29403611738235, 44.14577907696366, -103.52043077349663, 0.144000006839633, 0.20800000987946987, 0.9600000455975533, 0.0, 0.0, 0.0, 0.0, 0.0, 1.6476302150962052E9, 0.0, 2022-03-18 12:03:35.096
75.0, 62.198276163078845, -50.97109649609774, 55.05132734775543, -69.28912647906691, 0.144000006839633, 0.20800000987946987, 0.9600000455975533, 0.0, 0.0, 0.0, 0.0, 0.0, 1.6476302151118796E9, 0.0, 2022-03-18 12:03:35.111
75.0, 8.182901103049517, -73.58253162819892, -21.422146946191788, 84.77231229562312, 0.144000006839633, 0.20800000987946987, 0.9600000455975533, 0.0, 0.0, 0.0, 0.0, 0.0, 1.6476302151118796E9, 0.0, 2022-03-18 12:03:35.111
76.0, 1.60815698094666, 11.578730262815952, 10.583916874602437, -21.72881874255836, 0.144000006839633, 0.20800000987946987, 0.9600000455975533, 0.0, 0.0, 0.0, 0.0, 0.0, 1.6476302151125944E9, 0.0, 2022-03-18 12:03:35.112
76.0, 65.23507492709905, -19.922447063960135, 72.33340504299849, -116.71105791721493, 0.144000006839633, 0.20800000987946987, 0.9600000455975533, 0.0, 0.0, 0.0, 0.0, 0.0, 1.6476302151125944E9, 0.0, 2022-03-18 12:03:35.112
77.0, 21.609141943976283, -65.29491332639009, 0.4712273944169283, 42.904132291674614, 0.144000006839633, 0.20800000987946987, 0.9600000455975533, 0.0, 0.0, 0.0, 0.0, 0.0, 1.6476302151262E9, 0.0, 2022-03-18 12:03:35.126
77.0, -8.811204295605421, -28.501777562312782, -20.10944206174463, 58.81740660313517, 0.144000006839633, 0.20800000987946987, 0.9600000455975533, 0.0, 0.0, 0.0, 0.0, 0.0, 1.6476302151262E9, 0.0, 2022-03-18 12:03:35.126
78.0, 50.25677560456097, 16.758491701446474, 74.4801076175645, -138.40621756017208, 0.144000006839633, 0.20800000987946987, 0.9600000455975533, 0.0, 0.0, 0.0, 0.0, 0.0, 1.6476302151418622E9, 0.0, 2022-03-18 12:03:35.141
78.0, 41.76346280518919, -58.39479790814221, 24.294390112161636, -8.728926496580243, 0.144000006839633, 0.20800000987946987, 0.9600000455975533, 0.0, 0.0, 0.0, 0.0, 0.0, 1.6476302151418622E9, 0.0, 2022-03-18 12:03:35.141
79.0, -7.098330115899444, -57.2503885217011, -31.130927231162786, 90.71501332521439, 0.144000006839633, 0.20800000987946987, 0.9600000455975533, 0.0, 0.0, 0.0, 0.0, 0.0, 1.6476302151426015E9, 0.0, 2022-03-18 12:03:35.142
79.0, 22.622654831968248, 32.406233116053045, 45.89605225622654, -101.80755659379065, 0.144000006839633, 0.20800000987946987, 0.9600000455975533, 0.0, 0.0, 0.0, 0.0, 0.0, 1.6476302151426015E9, 0.0, 2022-03-18 12:03:35.142
80.0, 59.15773749910295, -47.20501724071801, 55.48141584265977, -68.3279721904546, 0.144000006839633, 0.20800000987946987, 0.9600000455975533, 0.0, 0.0, 0.0, 0.0, 0.0, 1.647630215156191E9, 0.0, 2022-03-18 12:03:35.156
80.0, 5.284478637389839, -72.146410045214, -22.51045783329755, 82.05714492779225, 0.144000006839633, 0.20800000987946987, 0.9600000455975533, 0.0, 0.0, 0.0, 0.0, 0.0, 1.647630215156191E9, 0.0, 2022-03-18 12:03:35.156
81.0, -2.3037783727049828, 14.608049226924777, 12.566063851118088, -25.74921119492501, 0.144000006839633, 0.20800000987946987, 0.9600000455975533, 0.0, 0.0, 0.0, 0.0, 0.0, 1.647630215171944E9, 0.0, 2022-03-18 12:03:35.171
81.0, 60.66491718124598, -19.484878769144416, 72.4044631421566, -119.66557888220996, 0.144000006839633, 0.20800000987946987, 0.9600000455975533, 0.0, 0.0, 0.0, 0.0, 0.0, 1.647630215171944E9, 0.0, 2022-03-18 12:03:35.171
82.0, 23.168680225498974, -62.26185446232557, -6.806617919355631, 43.97748357895762, 0.144000006839633, 0.20800000987946987, 0.9600000455975533, 0.0, 0.0, 0.0, 0.0, 0.0, 1.647630215172604E9, 0.0, 2022-03-18 12:03:35.172
82.0, -7.161908415146172, -32.050942620262504, -21.145394349470735, 52.485755978152156, 0.144000006839633, 0.20800000987946987, 0.9600000455975533, 0.0, 0.0, 0.0, 0.0, 0.0, 1.647630215172604E9, 0.0, 2022-03-18 12:03:35.172
83.0, 50.069780606776476, 14.615529026836157, 72.04543274641037, -137.01871467661113, 0.144000006839633, 0.20800000987946987, 0.9600000455975533, 0.0, 0.0, 0.0, 0.0, 0.0, 1.6476302151861951E9, 0.0, 2022-03-18 12:03:35.186
83.0, 42.93405149132013, -62.04868016485125, 23.995198115706444, -7.603216609917581, 0.144000006839633, 0.20800000987946987, 0.9600000455975533, 0.0, 0.0, 0.0, 0.0, 0.0, 1.6476302151861951E9, 0.0, 2022-03-18 12:03:35.186
84.0, -4.300884949043393, -61.20720267482102, -30.61108113732189, 91.04786442127079, 0.144000006839633, 0.20800000987946987, 0.9600000455975533, 0.0, 0.0, 0.0, 0.0, 0.0, 1.647630215201862E9, 0.0, 2022-03-18 12:03:35.201
84.0, 22.95924582798034, 33.76755669992417, 46.860946444794536, -102.54057698510587, 0.144000006839633, 0.20800000987946987, 0.9600000455975533, 0.0, 0.0, 0.0, 0.0, 0.0, 1.647630215201862E9, 0.0, 2022-03-18 12:03:35.201
85.0, 59.9917351892218, -46.917044944129884, 53.368372367694974, -66.514120711945, 0.144000006839633, 0.20800000987946987, 0.9600000455975533, 0.0, 0.0, 0.0, 0.0, 0.0, 1.6476302152025921E9, 0.0, 2022-03-18 12:03:35.202
85.0, 6.690681020729244, -69.39758357778192, -26.448572486639023, 83.06691791582853, 0.144000006839633, 0.20800000987946987, 0.9600000455975533, 0.0, 0.0, 0.0, 0.0, 0.0, 1.6476302152025921E9, 0.0, 2022-03-18 12:03:35.202
86.0, 2.3187379725277424, 12.45386685244739, 10.568957274779677, -33.0158368088305, 0.144000006839633, 0.20800000987946987, 0.9600000455975533, 0.0, 0.0, 0.0, 0.0, 0.0, 1.6476302152161925E9, 0.0, 2022-03-18 12:03:35.216
86.0, 64.45343583635986, -19.956106163561344, 69.39384367782623, -118.50994979590178, 0.144000006839633, 0.20800000987946987, 0.9600000455975533, 0.0, 0.0, 0.0, 0.0, 0.0, 1.6476302152161925E9, 0.0, 2022-03-18 12:03:35.216
87.0, 23.78202381823212, -62.8452788554132, -3.339730660431087, 41.47923040855676, 0.144000006839633, 0.20800000987946987, 0.9600000455975533, 0.0, 0.0, 0.0, 0.0, 0.0, 1.6476302152318811E9, 0.0, 2022-03-18 12:03:35.231
87.0, -7.472320111468434, -28.99544435646385, -23.568849520757794, 54.26594835706055, 0.144000006839633, 0.20800000987946987, 0.9600000455975533, 0.0, 0.0, 0.0, 0.0, 0.0, 1.6476302152318811E9, 0.0, 2022-03-18 12:03:35.231
88.0, 51.58444008883089, 14.129342032596469, 71.59664475172758, -136.7718812795356, 0.144000006839633, 0.20800000987946987, 0.9600000455975533, 0.0, 0.0, 0.0, 0.0, 0.0, 1.6476302152326071E9, 0.0, 2022-03-18 12:03:35.232
88.0, 41.88687950372696, -59.56164669431746, 23.76332431845367, -3.9156752536073327, 0.144000006839633, 0.20800000987946987, 0.9600000455975533, 0.0, 0.0, 0.0, 0.0, 0.0, 1.6476302152326071E9, 0.0, 2022-03-18 12:03:35.232
89.0, -4.585117345675826, -56.26305493339896, -30.827995334751904, 88.68798754923046, 0.144000006839633, 0.20800000987946987, 0.9600000455975533, 0.0, 0.0, 0.0, 0.0, 0.0, 1.647630215246191E9, 0.0, 2022-03-18 12:03:35.246
89.0, 24.89277410507202, 31.605894525535405, 43.56983448378742, -101.74771819449961, 0.144000006839633, 0.20800000987946987, 0.9600000455975533, 0.0, 0.0, 0.0, 0.0, 0.0, 1.647630215246191E9, 0.0, 2022-03-18 12:03:35.246
90.0, 57.313966820947826, -49.92018460854888, 53.63016536459327, -69.80523267295212, 0.144000006839633, 0.20800000987946987, 0.9600000455975533, 0.0, 0.0, 0.0, 0.0, 0.0, 1.6476302152619455E9, 0.0, 2022-03-18 12:03:35.261
90.0, 6.84775681886822, -72.13145044539124, -25.517337397672236, 83.893435806036, 0.144000006839633, 0.20800000987946987, 0.9600000455975533, 0.0, 0.0, 0.0, 0.0, 0.0, 1.6476302152619455E9, 0.0, 2022-03-18 12:03:35.261
91.0, 1.2192073855549097, 16.249865307472646, 10.553997674956918, -26.97963828034699, 0.144000006839633, 0.20800000987946987, 0.9600000455975533, 0.0, 0.0, 0.0, 0.0, 0.0, 1.6476302152625947E9, 0.0, 2022-03-18 12:03:35.262
91.0, 64.24400143884122, -24.743178106844425, 73.71342812664807, -119.11955348867923, 0.144000006839633, 0.20800000987946987, 0.9600000455975533, 0.0, 0.0, 0.0, 0.0, 0.0, 1.6476302152625947E9, 0.0, 2022-03-18 12:03:35.262
92.0, 21.470765645615757, -59.04928040038794, -5.523832234553993, 45.07701416593045, 0.144000006839633, 0.20800000987946987, 0.9600000455975533, 0.0, 0.0, 0.0, 0.0, 0.0, 1.647630215276177E9, 0.0, 2022-03-18 12:03:35.276
92.0, -11.129942268133163, -30.308149240911007, -20.06082336232066, 56.36777213215828, 0.144000006839633, 0.20800000987946987, 0.9600000455975533, 0.0, 0.0, 0.0, 0.0, 0.0, 1.647630215276177E9, 0.0, 2022-03-18 12:03:35.276
93.0, 46.898345444351435, 15.097976121120155, 73.46659472957253, -139.7002229448408, 0.144000006839633, 0.20800000987946987, 0.9600000455975533, 0.0, 0.0, 0.0, 0.0, 0.0, 1.6476302152918725E9, 0.0, 2022-03-18 12:03:35.291
93.0, 42.80315499287099, -63.836352343671024, 21.66524044331163, -4.622516345232725, 0.144000006839633, 0.20800000987946987, 0.9600000455975533, 0.0, 0.0, 0.0, 0.0, 0.0, 1.6476302152918725E9, 0.0, 2022-03-18 12:03:35.291
94.0, -6.384009224362671, -60.130111487582326, -30.270750241354108, 86.9676335696131, 0.144000006839633, 0.20800000987946987, 0.9600000455975533, 0.0, 0.0, 0.0, 0.0, 0.0, 1.6476302152925873E9, 0.0, 2022-03-18 12:03:35.292
94.0, 25.221885301172733, 29.81074254680425, 47.59022693615407, -105.44647925067693, 0.144000006839633, 0.20800000987946987, 0.9600000455975533, 0.0, 0.0, 0.0, 0.0, 0.0, 1.6476302152925873E9, 0.0, 2022-03-18 12:03:35.292
95.0, 61.04638697672635, -47.16013844124973, 52.096806382760406, -64.94336273055524, 0.144000006839633, 0.20800000987946987, 0.9600000455975533, 0.0, 0.0, 0.0, 0.0, 0.0, 1.6476302153225796E9, 0.0, 2022-03-18 12:03:35.322
95.0, 7.797691407613456, -71.63404375128448, -23.838122317567468, 85.37817608844489, 0.144000006839633, 0.20800000987946987, 0.9600000455975533, 0.0, 0.0, 0.0, 0.0, 0.0, 1.6476302153225796E9, 0.0, 2022-03-18 12:03:35.322
96.0, 0.23187379725277424, 17.985178886912763, 11.855482859537005, -28.251204265281558, 0.144000006839633, 0.20800000987946987, 0.9600000455975533, 0.0, 0.0, 0.0, 0.0, 0.0, 1.647630215323374E9, 0.0, 2022-03-18 12:03:35.323
96.0, 62.05615996476263, -20.352535558864474, 71.67518265079707, -116.43804522044957, 0.144000006839633, 0.20800000987946987, 0.9600000455975533, 0.0, 0.0, 0.0, 0.0, 0.0, 1.647630215323374E9, 0.0, 2022-03-18 12:03:35.323
97.0, 20.670427055098116, -65.03686022944748, -5.860423230566084, 43.648372382856905, 0.144000006839633, 0.20800000987946987, 0.9600000455975533, 0.0, 0.0, 0.0, 0.0, 0.0, 1.6476302153240578E9, 0.0, 2022-03-18 12:03:35.324
97.0, -10.015452081337571, -27.132974178530276, -20.644247755408287, 52.04444778338075, 0.144000006839633, 0.20800000987946987, 0.9600000455975533, 0.0, 0.0, 0.0, 0.0, 0.0, 1.6476302153240578E9, 0.0, 2022-03-18 12:03:35.324
98.0, 52.35485947970301, 14.361215829849243, 69.82019227277488, -138.37629836052656, 0.144000006839633, 0.20800000987946987, 0.9600000455975533, 0.0, 0.0, 0.0, 0.0, 0.0, 1.6476302153363035E9, 0.0, 2022-03-18 12:03:35.336
98.0, 40.432058420963585, -58.585532805882394, 22.13646783772856, -3.784778755158186, 0.144000006839633, 0.20800000987946987, 0.9600000455975533, 0.0, 0.0, 0.0, 0.0, 0.0, 1.6476302153363035E9, 0.0, 2022-03-18 12:03:35.336
99.0, -4.2859253492206335, -54.36318575590849, -31.504917226731777, 90.9693265222013, 0.144000006839633, 0.20800000987946987, 0.9600000455975533, 0.0, 0.0, 0.0, 0.0, 0.0, 1.6476302153518982E9, 0.0, 2022-03-18 12:03:35.351
99.0, 26.50841088593006, 34.354720992967486, 51.20297029335052, -111.11990748345852, 0.144000006839633, 0.20800000987946987, 0.9600000455975533, 0.0, 0.0, 0.0, 0.0, 0.0, 1.6476302153518982E9, 0.0, 2022-03-18 12:03:35.351
100.0, 59.367171896621585, -47.56778753641993, 50.914997996762395, -68.6982222860679, 0.144000006839633, 0.20800000987946987, 0.9600000455975533, 0.0, 0.0, 0.0, 0.0, 0.0, 1.6476302153526208E9, 0.0, 2022-03-18 12:03:35.352
100.0, 3.534205458126962, -72.11649084556848, -23.849342017434537, 86.10371667984873, 0.144000006839633, 0.20800000987946987, 0.9600000455975533, 0.0, 0.0, 0.0, 0.0, 0.0, 1.6476302153526208E9, 0.0, 2022-03-18 12:03:35.352
0.0, -16.65938435262069, 56.23874558368698, 0.02056944975629449, -2.2813389729708433, 0.144000006839633, 0.20800000987946987, 0.9600000455975533, 0.0, 0.0, 0.0, 0.0, 0.0, 1.6476302153668804E9, 0.0, 2022-03-18 12:03:35.366
1.0, 47.476159987505525, 14.452843378763646, 59.185786748770624, -89.79873783607036, 0.144000006839633, 0.20800000987946987, 0.9600000455975533, 0.0, 0.0, 0.0, 0.0, 0.0, 1.6476302153676143E9, 0.0, 2022-03-18 12:03:35.367
1.0, 4.897398991975933, -28.33535201428458, -17.702816440258175, 74.97003451175988, 0.144000006839633, 0.20800000987946987, 0.9600000455975533, 0.0, 0.0, 0.0, 0.0, 0.0, 1.6476302153676143E9, 0.0, 2022-03-18 12:03:35.367
2.0, -25.025540553499013, 11.255228916648775, -31.94061557156965, 82.64430922083557, 0.144000006839633, 0.20800000987946987, 0.9600000455975533, 0.0, 0.0, 0.0, 0.0, 0.0, 1.6476302153976028E9, 0.0, 2022-03-18 12:03:35.397
2.0, 35.23546743253246, 52.54372442746535, 60.24417843623087, -113.74157735239714, 0.144000006839633, 0.20800000987946987, 0.9600000455975533, 0.0, 0.0, 0.0, 0.0, 0.0, 1.6476302153976028E9, 0.0, 2022-03-18 12:03:35.397
3.0, 26.01287414180115, -22.127118087839335, 12.336060003843158, 25.39766059909016, 0.144000006839633, 0.20800000987946987, 0.9600000455975533, 0.0, 0.0, 0.0, 0.0, 0.0, 1.6476302153983264E9, 0.0, 2022-03-18 12:03:35.398
3.0, -23.09201227640733, -18.76120812771842, -41.511019558180124, 120.20038457587361, 0.144000006839633, 0.20800000987946987, 0.9600000455975533, 0.0, 0.0, 0.0, 0.0, 0.0, 1.6476302153983264E9, 0.0, 2022-03-18 12:03:35.398
4.0, 11.258968816604465, 65.84654856985435, 37.071758310776204, -77.80861857812852, 0.144000006839633, 0.20800000987946987, 0.9600000455975533, 0.0, 0.0, 0.0, 0.0, 0.0, 1.6476302153990693E9, 0.0, 2022-03-18 12:03:35.399
4.0, 38.48918039398268, -11.315067315939814, 38.35454399557784, -35.08400148432702, 0.144000006839633, 0.20800000987946987, 0.9600000455975533, 0.0, 0.0, 0.0, 0.0, 0.0, 1.6476302153990693E9, 0.0, 2022-03-18 12:03:35.399
5.0, -10.967256620060652, -32.36322426656261, -37.90575600089505, 120.37241997383535, 0.144000006839633, 0.20800000987946987, 0.9600000455975533, 0.0, 0.0, 0.0, 0.0, 0.0, 1.6476302154111903E9, 0.0, 2022-03-18 12:03:35.411
5.0, -13.50290879001841, 55.35612919414416, 0.9069257392548025, -0.007479799911379814, 0.144000006839633, 0.20800000987946987, 0.9600000455975533, 0.0, 0.0, 0.0, 0.0, 0.0, 1.6476302154111903E9, 0.0, 2022-03-18 12:03:35.411
6.0, 47.094690192025155, 11.745155810844153, 61.549403520766646, -88.53839155100286, 0.144000006839633, 0.20800000987946987, 0.9600000455975533, 0.0, 0.0, 0.0, 0.0, 0.0, 1.6476302154268603E9, 0.0, 2022-03-18 12:03:35.426
6.0, 4.100800301413983, -25.96799534233287, -18.099245835561305, 77.13917648606002, 0.144000006839633, 0.20800000987946987, 0.9600000455975533, 0.0, 0.0, 0.0, 0.0, 0.0, 1.6476302154268603E9, 0.0, 2022-03-18 12:03:35.426
7.0, -23.342585573438555, 12.178984205704182, -28.978614806663245, 81.10721033904701, 0.144000006839633, 0.20800000987946987, 0.9600000455975533, 0.0, 0.0, 0.0, 0.0, 0.0, 1.6476302154275975E9, 0.0, 2022-03-18 12:03:35.427
7.0, 31.15897648083046, 46.50378599902615, 62.383401210885495, -107.48846462648362, 0.144000006839633, 0.20800000987946987, 0.9600000455975533, 0.0, 0.0, 0.0, 0.0, 0.0, 1.6476302154275975E9, 0.0, 2022-03-18 12:03:35.427
8.0, 21.050026900600642, -25.22001535119489, 6.722470170352608, 24.874074605293572, 0.144000006839633, 0.20800000987946987, 0.9600000455975533, 0.0, 0.0, 0.0, 0.0, 0.0, 1.647630215441184E9, 0.0, 2022-03-18 12:03:35.441
8.0, -21.607271993998438, -19.09031932381913, -43.20519423810765, 116.13885322399437, 0.144000006839633, 0.20800000987946987, 0.9600000455975533, 0.0, 0.0, 0.0, 0.0, 0.0, 1.647630215441184E9, 0.0, 2022-03-18 12:03:35.441
9.0, 6.210103876423091, 68.94692563312128, 39.55879178130999, -80.89403604157269, 0.144000006839633, 0.20800000987946987, 0.9600000455975533, 0.0, 0.0, 0.0, 0.0, 0.0, 1.6476302154568624E9, 0.0, 2022-03-18 12:03:35.456
9.0, 40.594744069036096, -11.89849170902744, 40.70694106770679, -34.803508987650275, 0.144000006839633, 0.20800000987946987, 0.9600000455975533, 0.0, 0.0, 0.0, 0.0, 0.0, 1.6476302154568624E9, 0.0, 2022-03-18 12:03:35.456
10.0, -13.390711791347712, -31.282393179368228, -35.29156593186781, 114.54565584287047, 0.144000006839633, 0.20800000987946987, 0.9600000455975533, 0.0, 0.0, 0.0, 0.0, 0.0, 1.6476302154575963E9, 0.0, 2022-03-18 12:03:35.457
10.0, -13.704863387625664, 54.82880330039188, 1.5988072310574353, -3.814697954803705, 0.144000006839633, 0.20800000987946987, 0.9600000455975533, 0.0, 0.0, 0.0, 0.0, 0.0, 1.6476302154575963E9, 0.0, 2022-03-18 12:03:35.457
11.0, 47.087210392113775, 12.351019603665918, 56.6389148789458, -82.18056162633002, 0.144000006839633, 0.19200000911951065, 0.9600000455975533, 0.0, 0.0, 0.0, 0.0, 0.0, 1.6476302154711823E9, 0.0, 2022-03-18 12:03:35.471
11.0, 0.9443247388117015, -26.095151940826327, -18.462016131263226, 81.32412453647703, 0.144000006839633, 0.19200000911951065, 0.9600000455975533, 0.0, 0.0, 0.0, 0.0, 0.0, 1.6476302154711823E9, 0.0, 2022-03-18 12:03:35.471
12.0, -25.09659865265712, 11.763855310622603, -29.58447859948501, 83.94205450545996, 0.144000006839633, 0.19200000911951065, 0.9600000455975533, 0.0, 0.0, 0.0, 0.0, 0.0, 1.647630215486863E9, 0.0, 2022-03-18 12:03:35.486
12.0, 36.278899520169944, 53.80781061248854, 60.52093103295192, -109.7548439996317, 0.144000006839633, 0.19200000911951065, 0.9600000455975533, 0.0, 0.0, 0.0, 0.0, 0.0, 1.647630215486863E9, 0.0, 2022-03-18 12:03:35.486
13.0, 21.745648292358965, -23.89609076688066, 7.354513262864202, 24.339268911629915, 0.144000006839633, 0.19200000911951065, 0.9600000455975533, 0.0, 0.0, 0.0, 0.0, 0.0, 1.647630215487602E9, 0.0, 2022-03-18 12:03:35.487
13.0, -22.875098078977317, -20.204809510614723, -41.469880658667535, 118.60718719474971, 0.144000006839633, 0.19200000911951065, 0.9600000455975533, 0.0, 0.0, 0.0, 0.0, 0.0, 1.647630215487602E9, 0.0, 2022-03-18 12:03:35.487
14.0, 11.135552118066698, 65.31548277614638, 38.01421309961006, -81.41762203536928, 0.144000006839633, 0.19200000911951065, 0.9600000455975533, 0.0, 0.0, 0.0, 0.0, 0.0, 1.6476302155011876E9, 0.0, 2022-03-18 12:03:35.501
14.0, 42.5581915457733, -12.825986898038536, 41.436221559066325, -29.466671750880778, 0.144000006839633, 0.19200000911951065, 0.9600000455975533, 0.0, 0.0, 0.0, 0.0, 0.0, 1.6476302155011876E9, 0.0, 2022-03-18 12:03:35.501
15.0, -11.988249307963997, -34.48748744139448, -37.853397401515394, 116.79333571624011, 0.144000006839633, 0.19200000911951065, 0.9600000455975533, 0.0, 0.0, 0.0, 0.0, 0.0, 1.6476302155169055E9, 0.0, 2022-03-18 12:03:35.516
15.0, -13.678684087935835, 55.120515496935695, 1.4417314329184592, -5.2508195377886295, 0.144000006839633, 0.19200000911951065, 0.9600000455975533, 0.0, 0.0, 0.0, 0.0, 0.0, 1.6476302155169055E9, 0.0, 2022-03-18 12:03:35.516
16.0, 45.875482806470245, 11.397345114964992, 59.619615143630654, -85.4454942876473, 0.144000006839633, 0.19200000911951065, 0.9600000455975533, 0.0, 0.0, 0.0, 0.0, 0.0, 1.6476302155176473E9, 0.0, 2022-03-18 12:03:35.517
16.0, 2.253289723303169, -25.48554824804887, -18.794867227319628, 78.3359444718808, 0.144000006839633, 0.19200000911951065, 0.9600000455975533, 0.0, 0.0, 0.0, 0.0, 0.0, 1.6476302155176473E9, 0.0, 2022-03-18 12:03:35.517
17.0, -23.739014968741685, 11.995729107875377, -29.715375097934157, 81.0024931402877, 0.144000006839633, 0.19200000911951065, 0.9600000455975533, 0.0, 0.0, 0.0, 0.0, 0.0, 1.6476302155311835E9, 0.0, 2022-03-18 12:03:35.531
17.0, 33.69462865078822, 49.34237006539479, 61.190373125020415, -110.55518259014934, 0.144000006839633, 0.19200000911951065, 0.9600000455975533, 0.0, 0.0, 0.0, 0.0, 0.0, 1.6476302155311835E9, 0.0, 2022-03-18 12:03:35.531
18.0, 20.70969600463286, -22.998514777515084, 7.679884559009224, 32.10704111959785, 0.144000006839633, 0.19200000911951065, 0.9600000455975533, 0.0, 0.0, 0.0, 0.0, 0.0, 1.6476302155469093E9, 0.0, 2022-03-18 12:03:35.546
18.0, -25.17139665177092, -16.524747954215854, -43.21641393797472, 119.56460158340633, 0.144000006839633, 0.19200000911951065, 0.9600000455975533, 0.0, 0.0, 0.0, 0.0, 0.0, 1.6476302155469093E9, 0.0, 2022-03-18 12:03:35.546
19.0, 14.778214674908668, 69.92677942151204, 38.42186219478026, -79.48783365823328, 0.144000006839633, 0.19200000911951065, 0.9600000455975533, 0.0, 0.0, 0.0, 0.0, 0.0, 1.6476302155476427E9, 0.0, 2022-03-18 12:03:35.547
19.0, 42.78258554311469, -8.23712965240702, 43.523085734341294, -33.54316270258278, 0.144000006839633, 0.19200000911951065, 0.9600000455975533, 0.0, 0.0, 0.0, 0.0, 0.0, 1.6476302155476427E9, 0.0, 2022-03-18 12:03:35.547
20.0, -9.87894573295489, -31.97801457112655, -35.90116962464526, 119.0933741889894, 0.144000006839633, 0.19200000911951065, 0.9600000455975533, 0.0, 0.0, 0.0, 0.0, 0.0, 1.6476302155612118E9, 0.0, 2022-03-18 12:03:35.561
20.0, -11.827433609869331, 51.3020776421763, 2.9077722155489028, -8.908441694453359, 0.144000006839633, 0.19200000911951065, 0.9600000455975533, 0.0, 0.0, 0.0, 0.0, 0.0, 1.6476302155612118E9, 0.0, 2022-03-18 12:03:35.561
21.0, 46.02507880469784, 10.380092327017337, 61.74761821841821, -83.41472861170769, 0.144000006839633, 0.20800000987946987, 0.9600000455975533, 0.0, 0.0, 0.0, 0.0, 0.0, 1.6476302155769114E9, 0.0, 2022-03-18 12:03:35.576
21.0, 2.369226621929556, -25.478068448137492, -17.613058841321617, 78.34342427179217, 0.144000006839633, 0.20800000987946987, 0.9600000455975533, 0.0, 0.0, 0.0, 0.0, 0.0, 1.6476302155769114E9, 0.0, 2022-03-18 12:03:35.576
22.0, -24.602931858506054, 13.633805288467556, -28.911296607460827, 79.24848006106913, 0.144000006839633, 0.20800000987946987, 0.9600000455975533, 0.0, 0.0, 0.0, 0.0, 0.0, 1.6476302155776415E9, 0.0, 2022-03-18 12:03:35.577
22.0, 33.055105758365244, 50.52043855143711, 61.549403520766646, -112.28675626963377, 0.144000006839633, 0.20800000987946987, 0.9600000455975533, 0.0, 0.0, 0.0, 0.0, 0.0, 1.6476302155776415E9, 0.0, 2022-03-18 12:03:35.577
23.0, 20.73587530432269, -22.463709083851427, 8.697137346956879, 30.480184638872743, 0.144000006839633, 0.20800000987946987, 0.9600000455975533, 0.0, 0.0, 0.0, 0.0, 0.0, 1.6476302156075776E9, 0.0, 2022-03-18 12:03:35.607
23.0, -25.829619043972343, -15.91140436148271, -41.14076946256682, 114.48581744357944, 0.144000006839633, 0.20800000987946987, 0.9600000455975533, 0.0, 0.0, 0.0, 0.0, 0.0, 1.6476302156075776E9, 0.0, 2022-03-18 12:03:35.607
24.0, 11.124332418199629, 71.03378980839625, 37.62526350421831, -80.21711414959282, 0.144000006839633, 0.20800000987946987, 0.9600000455975533, 0.0, 0.0, 0.0, 0.0, 0.0, 1.6476302156083317E9, 0.0, 2022-03-18 12:03:35.608
24.0, 38.48918039398268, -11.752635610755533, 42.696567844133824, -29.638707148842514, 0.144000006839633, 0.20800000987946987, 0.9600000455975533, 0.0, 0.0, 0.0, 0.0, 0.0, 1.6476302156083317E9, 0.0, 2022-03-18 12:03:35.608
25.0, -15.387818367686123, -31.884517072234303, -37.75242010271177, 121.61032685916871, 0.144000006839633, 0.20800000987946987, 0.9600000455975533, 0.0, 0.0, 0.0, 0.0, 0.0, 1.647630215609048E9, 0.0, 2022-03-18 12:03:35.609
25.0, -12.197683705482632, 59.211966048460454, 6.883285868447274, -14.630488626658916, 0.144000006839633, 0.20800000987946987, 0.9600000455975533, 0.0, 0.0, 0.0, 0.0, 0.0, 1.647630215609048E9, 0.0, 2022-03-18 12:03:35.609
26.0, 47.521038786973804, 8.842993445228785, 60.22173903649673, -82.87244311813265, 0.144000006839633, 0.20800000987946987, 0.9600000455975533, 0.0, 0.0, 0.0, 0.0, 0.0, 1.647630215621216E9, 0.0, 2022-03-18 12:03:35.621
26.0, 0.9069257392548025, -28.054859517607838, -19.785940715577453, 78.07789137493819, 0.144000006839633, 0.20800000987946987, 0.9600000455975533, 0.0, 0.0, 0.0, 0.0, 0.0, 1.647630215621216E9, 0.0, 2022-03-18 12:03:35.621
27.0, -24.550573259126395, 14.131211982574314, -30.81864558486268, 76.84372438956052, 0.144000006839633, 0.20800000987946987, 0.9600000455975533, 0.0, 0.0, 0.0, 0.0, 0.0, 1.6476302156368847E9, 0.0, 2022-03-18 12:03:35.636
27.0, 35.22424773266539, 47.39762208843604, 61.975752115715295, -109.41077320370823, 0.144000006839633, 0.20800000987946987, 0.9600000455975533, 0.0, 0.0, 0.0, 0.0, 0.0, 1.6476302156368847E9, 0.0, 2022-03-18 12:03:35.636
28.0, 20.073913012165576, -24.659030357841402, 7.721023458521813, 31.710611724294722, 0.144000006839633, 0.20800000987946987, 0.9600000455975533, 0.0, 0.0, 0.0, 0.0, 0.0, 1.6476302156376216E9, 0.0, 2022-03-18 12:03:35.637
28.0, -25.373351249378175, -13.11021929467097, -39.91782217705622, 118.74556349311024, 0.144000006839633, 0.20800000987946987, 0.9600000455975533, 0.0, 0.0, 0.0, 0.0, 0.0, 1.6476302156376216E9, 0.0, 2022-03-18 12:03:35.637
29.0, 14.105032682884485, 66.98347815638408, 41.63817615667358, -83.1903346143663, 0.144000006839633, 0.20800000987946987, 0.9600000455975533, 0.0, 0.0, 0.0, 0.0, 0.0, 1.6476302156512225E9, 0.0, 2022-03-18 12:03:35.651
29.0, 42.17298185033724, -14.31446708040312, 39.70838777953759, -29.201138854026794, 0.144000006839633, 0.20800000987946987, 0.9600000455975533, 0.0, 0.0, 0.0, 0.0, 0.0, 1.6476302156512225E9, 0.0, 2022-03-18 12:03:35.651
30.0, -12.216383205261081, -29.266587103251368, -39.13618308631703, 121.27373586315662, 0.144000006839633, 0.20800000987946987, 0.9600000455975533, 0.0, 0.0, 0.0, 0.0, 0.0, 1.6476302156668816E9, 0.0, 2022-03-18 12:03:35.666
30.0, -12.25004230486229, 58.400407758075744, 1.527749131899327, -12.969973046332598, 0.144000006839633, 0.20800000987946987, 0.9600000455975533, 0.0, 0.0, 0.0, 0.0, 0.0, 1.6476302156668816E9, 0.0, 2022-03-18 12:03:35.666
31.0, 51.115082644391805, 7.878099256660789, 59.2306655482389, -84.7049940964207, 0.144000006839633, 0.19200000911951065, 0.9600000455975533, 0.0, 0.0, 0.0, 0.0, 0.0, 1.6476302156676145E9, 0.0, 2022-03-18 12:03:35.667
31.0, 1.7633628291077912, -26.117591340560466, -21.738168492447585, 75.68809530325234, 0.144000006839633, 0.19200000911951065, 0.9600000455975533, 0.0, 0.0, 0.0, 0.0, 0.0, 1.6476302156676145E9, 0.0, 2022-03-18 12:03:35.667
32.0, -27.54623312363401, 16.046040759887546, -31.028079982381314, 75.05979211069643, 0.144000006839633, 0.19200000911951065, 0.9600000455975533, 0.0, 0.0, 0.0, 0.0, 0.0, 1.647630215681221E9, 0.0, 2022-03-18 12:03:35.681
32.0, 35.833851425442845, 49.473266563843936, 62.28616381203756, -111.41161968000233, 0.144000006839633, 0.19200000911951065, 0.9600000455975533, 0.0, 0.0, 0.0, 0.0, 0.0, 1.647630215681221E9, 0.0, 2022-03-18 12:03:35.681
33.0, 25.852058443706483, -24.165363563690335, 4.830080792773515, 31.243124229833484, 0.144000006839633, 0.19200000911951065, 0.9600000455975533, 0.0, 0.0, 0.0, 0.0, 0.0, 1.647630215696892E9, 0.0, 2022-03-18 12:03:35.696
33.0, -26.046533241402358, -15.47757596662268, -41.103370463009924, 116.63252001814544, 0.144000006839633, 0.19200000911951065, 0.9600000455975533, 0.0, 0.0, 0.0, 0.0, 0.0, 1.647630215696892E9, 0.0, 2022-03-18 12:03:35.696
34.0, 11.47962291399017, 68.35602144012228, 38.986587088089436, -82.1132434271276, 0.144000006839633, 0.19200000911951065, 0.9600000455975533, 0.0, 0.0, 0.0, 0.0, 0.0, 1.64763021569763E9, 0.0, 2022-03-18 12:03:35.697
34.0, 42.56941124564037, -14.815613674465567, 39.899122677277774, -30.689619036391377, 0.144000006839633, 0.19200000911951065, 0.9600000455975533, 0.0, 0.0, 0.0, 0.0, 0.0, 1.64763021569763E9, 0.0, 2022-03-18 12:03:35.697
35.0, -14.449103478807956, -32.09769136970863, -38.54153899336234, 119.46736418455839, 0.144000006839633, 0.19200000911951065, 0.9600000455975533, 0.0, 0.0, 0.0, 0.0, 0.0, 1.647630215711246E9, 0.0, 2022-03-18 12:03:35.711
35.0, -16.35271255625412, 59.85896874079481, 3.180784912314266, -13.68429393786937, 0.144000006839633, 0.19200000911951065, 0.9600000455975533, 0.0, 0.0, 0.0, 0.0, 0.0, 1.647630215711246E9, 0.0, 2022-03-18 12:03:35.711
36.0, 50.01555205741897, 7.081500566098839, 60.85752202896401, -82.3002384249121, 0.144000006839633, 0.19200000911951065, 0.9600000455975533, 0.0, 0.0, 0.0, 0.0, 0.0, 1.647630215726987E9, 0.0, 2022-03-18 12:03:35.726
36.0, 2.0700346254743636, -26.82443243218586, -19.10901882359758, 84.69751429650933, 0.144000006839633, 0.19200000911951065, 0.9600000455975533, 0.0, 0.0, 0.0, 0.0, 0.0, 1.647630215726987E9, 0.0, 2022-03-18 12:03:35.726
37.0, -25.425709848757833, 20.010334712918848, -27.894043819513172, 73.76578672602773, 0.144000006839633, 0.19200000911951065, 0.9600000455975533, 0.0, 0.0, 0.0, 0.0, 0.0, 1.6476302157276237E9, 0.0, 2022-03-18 12:03:35.727
37.0, 37.69632160337642, 44.667495120782405, 65.09856857871637, -116.77089631650597, 0.144000006839633, 0.19200000911951065, 0.9600000455975533, 0.0, 0.0, 0.0, 0.0, 0.0, 1.6476302157276237E9, 0.0, 2022-03-18 12:03:35.727
38.0, 24.28130046231672, -27.082485529128462, 4.822600992862135, 31.564755626022816, 0.144000006839633, 0.19200000911951065, 0.9600000455975533, 0.0, 0.0, 0.0, 0.0, 0.0, 1.6476302157412703E9, 0.0, 2022-03-18 12:03:35.741
38.0, -24.573012658860534, -16.872558650095016, -39.409195783082396, 118.80166199244559, 0.144000006839633, 0.19200000911951065, 0.9600000455975533, 0.0, 0.0, 0.0, 0.0, 0.0, 1.6476302157412703E9, 0.0, 2022-03-18 12:03:35.741
39.0, 14.090073083061725, 64.94897258048877, 41.35394376004115, -85.58387058600783, 0.144000006839633, 0.19200000911951065, 0.9600000455975533, 0.0, 0.0, 0.0, 0.0, 0.0, 1.647630215756892E9, 0.0, 2022-03-18 12:03:35.756
39.0, 43.17527503846213, -15.163424370344728, 40.51246627001092, -30.846694834530354, 0.144000006839633, 0.19200000911951065, 0.9600000455975533, 0.0, 0.0, 0.0, 0.0, 0.0, 1.647630215756892E9, 0.0, 2022-03-18 12:03:35.756
40.0, -13.626325488556176, -31.308572479058057, -38.49292029393837, 125.03607521858066, 0.144000006839633, 0.19200000911951065, 0.9600000455975533, 0.0, 0.0, 0.0, 0.0, 0.0, 1.647630215757609E9, 0.0, 2022-03-18 12:03:35.757
40.0, -17.08573294756934, 65.39402067521587, 2.8067949167452753, -16.10400920920074, 0.144000006839633, 0.19200000911951065, 0.9600000455975533, 0.0, 0.0, 0.0, 0.0, 0.0, 1.647630215757609E9, 0.0, 2022-03-18 12:03:35.757
41.0, 51.055244245100766, 5.162931888829917, 60.87248162878677, -80.97631384059787, 0.144000006839633, 0.19200000911951065, 0.9600000455975533, 0.0, 0.0, 0.0, 0.0, 0.0, 1.64763021577122E9, 0.0, 2022-03-18 12:03:35.771
41.0, -1.3033551345579326, -25.814659444149584, -16.66686415253207, 80.95387444086373, 0.144000006839633, 0.19200000911951065, 0.9600000455975533, 0.0, 0.0, 0.0, 0.0, 0.0, 1.64763021577122E9, 0.0, 2022-03-18 12:03:35.771
42.0, -23.9185301666148, 16.547187353949994, -26.177429739851505, 72.61763743963093, 0.144000006839633, 0.19200000911951065, 0.9600000455975533, 0.0, 0.0, 0.0, 0.0, 0.0, 1.6476302157875881E9, 0.0, 2022-03-18 12:03:35.787
42.0, 37.95811460027471, 43.493166534695774, 66.29533656453714, -115.37965353298932, 0.144000006839633, 0.19200000911951065, 0.9600000455975533, 0.0, 0.0, 0.0, 0.0, 0.0, 1.6476302157875881E9, 0.0, 2022-03-18 12:03:35.787
43.0, 23.17429007543251, -21.19588299887255, 4.463570597115904, 34.09666789602488, 0.144000006839633, 0.19200000911951065, 0.9600000455975533, 0.0, 0.0, 0.0, 0.0, 0.0, 1.6476302157883267E9, 0.0, 2022-03-18 12:03:35.788
43.0, -25.470588648226112, -13.633805288467556, -40.90515576535836, 115.96681782603264, 0.144000006839633, 0.19200000911951065, 0.9600000455975533, 0.0, 0.0, 0.0, 0.0, 0.0, 1.6476302157883267E9, 0.0, 2022-03-18 12:03:35.788
44.0, 14.082593283150345, 69.10774133121595, 40.276852572802454, -87.33414376527071, 0.144000006839633, 0.19200000911951065, 0.9600000455975533, 0.0, 0.0, 0.0, 0.0, 0.0, 1.6476302158012316E9, 0.0, 2022-03-18 12:03:35.801
44.0, 43.422108435537666, -18.66023082891479, 40.32547127222642, -25.483678298071027, 0.144000006839633, 0.19200000911951065, 0.9600000455975533, 0.0, 0.0, 0.0, 0.0, 0.0, 1.6476302158012316E9, 0.0, 2022-03-18 12:03:35.801
45.0, -16.27791455714032, -31.60402457555756, -40.91637546522543, 123.03148884233087, 0.144000006839633, 0.19200000911951065, 0.9600000455975533, 0.0, 0.0, 0.0, 0.0, 0.0, 1.647630215816872E9, 0.0, 2022-03-18 12:03:35.816
45.0, -12.616552500519902, 61.9009541166015, 3.5510350079275668, -17.24841859564185, 0.144000006839633, 0.19200000911951065, 0.9600000455975533, 0.0, 0.0, 0.0, 0.0, 0.0, 1.647630215816872E9, 0.0, 2022-03-18 12:03:35.816
46.0, 48.53455167496577, 7.810781057458371, 59.66823384305462, -77.13543658610433, 0.144000006839633, 0.19200000911951065, 0.9600000455975533, 0.0, 0.0, 0.0, 0.0, 0.0, 1.6476302158176105E9, 0.0, 2022-03-18 12:03:35.817
46.0, -1.0677414373494685, -25.653843746054918, -23.1406309758313, 89.8585762353614, 0.144000006839633, 0.19200000911951065, 0.9600000455975533, 0.0, 0.0, 0.0, 0.0, 0.0, 1.6476302158176105E9, 0.0, 2022-03-18 12:03:35.817
47.0, -27.99128121836111, 15.997422060463578, -29.023493606131524, 75.15328960958868, 0.144000006839633, 0.19200000911951065, 0.9600000455975533, 0.0, 0.0, 0.0, 0.0, 0.0, 1.6476302158312323E9, 0.0, 2022-03-18 12:03:35.831
47.0, 39.31943818414584, 45.022785616572946, 63.79334349418059, -113.75279705226421, 0.144000006839633, 0.19200000911951065, 0.9600000455975533, 0.0, 0.0, 0.0, 0.0, 0.0, 1.6476302158312323E9, 0.0, 2022-03-18 12:03:35.831
48.0, 18.75372832780704, -28.01746051805094, 5.099353589583188, 41.16133891232312, 0.144000006839633, 0.19200000911951065, 0.9600000455975533, 0.0, 0.0, 0.0, 0.0, 0.0, 1.6476302158468711E9, 0.0, 2022-03-18 12:03:35.846
48.0, -29.277806803118438, -13.289734492544085, -39.95896107656881, 121.22137726377696, 0.144000006839633, 0.19200000911951065, 0.9600000455975533, 0.0, 0.0, 0.0, 0.0, 0.0, 1.6476302158468711E9, 0.0, 2022-03-18 12:03:35.846
49.0, 14.30698728049174, 63.209919101092964, 44.56651782197878, -87.1172295678407, 0.144000006839633, 0.19200000911951065, 0.9600000455975533, 0.0, 0.0, 0.0, 0.0, 0.0, 1.6476302158476024E9, 0.0, 2022-03-18 12:03:35.847
49.0, 40.93133506504819, -15.428957267198712, 39.816844878252596, -28.62893416080624, 0.144000006839633, 0.19200000911951065, 0.9600000455975533, 0.0, 0.0, 0.0, 0.0, 0.0, 1.6476302158476024E9, 0.0, 2022-03-18 12:03:35.847
50.0, -13.989095784258097, -30.684009186457843, -44.8918891181238, 124.95753731951118, 0.144000006839633, 0.19200000911951065, 0.9600000455975533, 0.0, 0.0, 0.0, 0.0, 0.0, 1.6476302158612208E9, 0.0, 2022-03-18 12:03:35.861
50.0, -14.871712173800915, 60.57702953228727, 4.830080792773515, -18.205832984298468, 0.144000006839633, 0.19200000911951065, 0.9600000455975533, 0.0, 0.0, 0.0, 0.0, 0.0, 1.6476302158612208E9, 0.0, 2022-03-18 12:03:35.861
51.0, 53.8227702123113, 5.1292727892287076, 61.88225461682305, -87.62959586177021, 0.144000006839633, 0.17600000835955143, 0.9600000455975533, 0.0, 0.0, 0.0, 0.0, 0.0, 1.6476302158768704E9, 0.0, 2022-03-18 12:03:35.876
51.0, -1.9540977268479764, -30.283839891199023, -20.619938405696303, 80.65094254445285, 0.144000006839633, 0.17600000835955143, 0.9600000455975533, 0.0, 0.0, 0.0, 0.0, 0.0, 1.6476302158768704E9, 0.0, 2022-03-18 12:03:35.876
52.0, -31.054259282071143, 21.704509392846376, -29.027233506087214, 74.24823382031173, 0.144000006839633, 0.17600000835955143, 0.9600000455975533, 0.0, 0.0, 0.0, 0.0, 0.0, 1.6476302158776104E9, 0.0, 2022-03-18 12:03:35.877
52.0, 43.1864947383292, 43.56048473389819, 66.76656395895407, -116.07527492474765, 0.144000006839633, 0.17600000835955143, 0.9600000455975533, 0.0, 0.0, 0.0, 0.0, 0.0, 1.6476302158776104E9, 0.0, 2022-03-18 12:03:35.877
53.0, 21.633451293688267, -26.925409730989486, 6.6626317710615695, 39.75513652898371, 0.144000006839633, 0.17600000835955143, 0.9600000455975533, 0.0, 0.0, 0.0, 0.0, 0.0, 1.6476302158911903E9, 0.0, 2022-03-18 12:03:35.891
53.0, -29.15065020462498, -9.987402831669897, -40.96873406460509, 119.35890708584338, 0.144000006839633, 0.17600000835955143, 0.9600000455975533, 0.0, 0.0, 0.0, 0.0, 0.0, 1.6476302158911903E9, 0.0, 2022-03-18 12:03:35.891
54.0, 18.791127327363938, 63.47171209799126, 47.483639787416905, -87.47625996358693, 0.144000006839633, 0.17600000835955143, 0.9600000455975533, 0.0, 0.0, 0.0, 0.0, 0.0, 1.647630215906872E9, 0.0, 2022-03-18 12:03:35.906
54.0, 42.72274714382365, -16.6930434522219, 35.50100032938644, -27.495744474232197, 0.144000006839633, 0.17600000835955143, 0.9600000455975533, 0.0, 0.0, 0.0, 0.0, 0.0, 1.647630215906872E9, 0.0, 2022-03-18 12:03:35.906
55.0, -17.08199304761365, -33.15608305716887, -40.75181986717507, 128.16637148149312, 0.144000006839633, 0.17600000835955143, 0.9600000455975533, 0.0, 0.0, 0.0, 0.0, 0.0, 1.6476302159076324E9, 0.0, 2022-03-18 12:03:35.907
55.0, -12.24256250495091, 62.10290871420875, 7.268495563883334, -20.11318196170032, 0.144000006839633, 0.17600000835955143, 0.9600000455975533, 0.0, 0.0, 0.0, 0.0, 0.0, 1.6476302159076324E9, 0.0, 2022-03-18 12:03:35.907
56.0, 54.51839160406962, 2.2046710238792, 62.23006531270221, -82.43861472327262, 0.144000006839633, 0.17600000835955143, 0.9600000455975533, 0.0, 0.0, 0.0, 0.0, 0.0, 1.647630215921192E9, 0.0, 2022-03-18 12:03:35.921
56.0, 0.1851250478066504, -30.871004184242338, -21.356698696967214, 85.2248401902616, 0.144000006839633, 0.17600000835955143, 0.9600000455975533, 0.0, 0.0, 0.0, 0.0, 0.0, 1.647630215921192E9, 0.0, 2022-03-18 12:03:35.921
57.0, -27.774367020931095, 21.52125429501757, -30.055705993901938, 74.3342515192926, 0.144000006839633, 0.17600000835955143, 0.9600000455975533, 0.0, 0.0, 0.0, 0.0, 0.0, 1.6476302159368768E9, 0.0, 2022-03-18 12:03:35.936
57.0, 39.2222007852979, 45.093843715731055, 67.5295035499148, -112.28675626963377, 0.144000006839633, 0.17600000835955143, 0.9600000455975533, 0.0, 0.0, 0.0, 0.0, 0.0, 1.6476302159368768E9, 0.0, 2022-03-18 12:03:35.936
58.0, 17.97956903697923, -23.836252367589623, 2.006456326227635, 42.051435101777315, 0.144000006839633, 0.17600000835955143, 0.9600000455975533, 0.0, 0.0, 0.0, 0.0, 0.0, 1.6476302159376075E9, 0.0, 2022-03-18 12:03:35.937
58.0, -26.192389339674264, -9.340400139335543, -42.0383454519324, 116.15007292386144, 0.144000006839633, 0.17600000835955143, 0.9600000455975533, 0.0, 0.0, 0.0, 0.0, 0.0, 1.6476302159376075E9, 0.0, 2022-03-18 12:03:35.937
59.0, 15.380338567774743, 63.135121101979166, 43.20893413806334, -87.37154276482761, 0.144000006839633, 0.17600000835955143, 0.9600000455975533, 0.0, 0.0, 0.0, 0.0, 0.0, 1.6476302159511857E9, 0.0, 2022-03-18 12:03:35.951
59.0, 41.828911054413766, -18.824786426965147, 38.17128889774904, -24.98253170400858, 0.144000006839633, 0.17600000835955143, 0.9600000455975533, 0.0, 0.0, 0.0, 0.0, 0.0, 1.6476302159511857E9, 0.0, 2022-03-18 12:03:35.951
60.0, -16.487348954658955, -29.431142701301724, -41.20060786185786, 125.6531587112695, 0.144000006839633, 0.17600000835955143, 0.9760000463575125, 0.0, 0.0, 0.0, 0.0, 0.0, 1.647630215966874E9, 0.0, 2022-03-18 12:03:35.966
60.0, -14.30324738053605, 64.55254318518564, 7.088980366010219, -24.455205810256302, 0.144000006839633, 0.17600000835955143, 0.9760000463575125, 0.0, 0.0, 0.0, 0.0, 0.0, 1.647630215966874E9, 0.0, 2022-03-18 12:03:35.966
61.0, 51.77704493654892, 5.858553280588239, 61.74013841850683, -79.70100795570761, 0.144000006839633, 0.17600000835955143, 0.9760000463575125, 0.0, 0.0, 0.0, 0.0, 0.0, 1.6476302159676027E9, 0.0, 2022-03-18 12:03:35.967
61.0, 0.3945594453252852, -30.706448586191982, -21.435236596036702, 85.6324892854318, 0.144000006839633, 0.17600000835955143, 0.9760000463575125, 0.0, 0.0, 0.0, 0.0, 0.0, 1.6476302159676027E9, 0.0, 2022-03-18 12:03:35.967
62.0, -26.00539434188977, 19.845779114868492, -30.975721383001655, 72.70739503856748, 0.1600000075995922, 0.17600000835955143, 0.9760000463575125, 0.0, 0.0, 0.0, 0.0, 0.0, 1.6476302159811847E9, 0.0, 2022-03-18 12:03:35.981
62.0, 45.40799531200901, 39.35683718370274, 67.02461705589667, -114.64289324171841, 0.1600000075995922, 0.17600000835955143, 0.9760000463575125, 0.0, 0.0, 0.0, 0.0, 0.0, 1.6476302159811847E9, 0.0, 2022-03-18 12:03:35.981
63.0, 20.982708701398224, -28.80657940870151, 4.351373598445207, 40.869626715779305, 0.1600000075995922, 0.17600000835955143, 0.9760000463575125, 0.0, 0.0, 0.0, 0.0, 0.0, 1.6476302159968708E9, 0.0, 2022-03-18 12:03:35.996
63.0, -27.60233162296936, -8.603639848064631, -39.73082717927173, 119.00361659005284, 0.1600000075995922, 0.17600000835955143, 0.9760000463575125, 0.0, 0.0, 0.0, 0.0, 0.0, 1.6476302159968708E9, 0.0, 2022-03-18 12:03:35.996
64.0, 20.533920706715435, 58.85667555266991, 45.38181601231918, -89.55564433895051, 0.1600000075995922, 0.17600000835955143, 0.9760000463575125, 0.0, 0.0, 0.0, 0.0, 0.0, 1.6476302159976103E9, 0.0, 2022-03-18 12:03:35.997
64.0, 44.271065725479275, -18.398437832016498, 36.72768751485273, -25.37148129940033, 0.1600000075995922, 0.17600000835955143, 0.9760000463575125, 0.0, 0.0, 0.0, 0.0, 0.0, 1.6476302159976103E9, 0.0, 2022-03-18 12:03:35.997
65.0, -20.904170802328736, -28.978614806663245, -42.50957284634933, 127.67644458729774, 0.1600000075995922, 0.17600000835955143, 0.9760000463575125, 0.0, 0.0, 0.0, 0.0, 0.0, 1.6476302160111835E9, 0.0, 2022-03-18 12:03:36.011
65.0, -13.540307789575309, 65.50621767388657, 8.887872244697064, -24.720738707110286, 0.1600000075995922, 0.17600000835955143, 0.9760000463575125, 0.0, 0.0, 0.0, 0.0, 0.0, 1.6476302160111835E9, 0.0, 2022-03-18 12:03:36.011
66.0, 51.03280484536663, 2.7656560172326863, 62.405840610619634, -77.27755278442055, 0.1600000075995922, 0.17600000835955143, 0.9760000463575125, 0.0, 0.0, 0.0, 0.0, 0.0, 1.6476302160269165E9, 0.0, 2022-03-18 12:03:36.026
66.0, -0.6750519420020282, -29.887410495895892, -21.768087692093104, 89.14425534382463, 0.1600000075995922, 0.17600000835955143, 0.9760000463575125, 0.0, 0.0, 0.0, 0.0, 0.0, 1.6476302160269165E9, 0.0, 2022-03-18 12:03:36.026
67.0, -29.292766402941197, 24.509434359613806, -28.30917271459475, 72.94674863573164, 0.1600000075995922, 0.17600000835955143, 0.9760000463575125, 0.0, 0.0, 0.0, 0.0, 0.0, 1.6476302160276E9, 0.0, 2022-03-18 12:03:36.027
67.0, 44.96294721728191, 39.68594837980345, 68.793589734938, -115.82096172776073, 0.1600000075995922, 0.17600000835955143, 0.9760000463575125, 0.0, 0.0, 0.0, 0.0, 0.0, 1.6476302160276E9, 0.0, 2022-03-18 12:03:36.027
68.0, 19.56902651814744, -27.086225429084152, 1.082701037172228, 46.23638315219432, 0.1600000075995922, 0.17600000835955143, 0.9760000463575125, 0.0, 0.0, 0.0, 0.0, 0.0, 1.6476302160411897E9, 0.0, 2022-03-18 12:03:36.041
68.0, -31.409549777861685, -8.405425150413066, -43.826017630752176, 117.44033840857446, 0.1600000075995922, 0.17600000835955143, 0.9760000463575125, 0.0, 0.0, 0.0, 0.0, 0.0, 1.6476302160411897E9, 0.0, 2022-03-18 12:03:36.041
69.0, 20.37310500862077, 65.76427077082917, 41.67557515623048, -93.63213529065251, 0.1600000075995922, 0.17600000835955143, 0.9760000463575125, 0.0, 0.0, 0.0, 0.0, 0.0, 1.6476302160569172E9, 0.0, 2022-03-18 12:03:36.056
69.0, 41.58207765733823, -17.216629446018487, 37.77111960249022, -24.13357441406697, 0.1600000075995922, 0.17600000835955143, 0.9760000463575125, 0.0, 0.0, 0.0, 0.0, 0.0, 1.6476302160569172E9, 0.0, 2022-03-18 12:03:36.056
70.0, -20.062693312298506, -30.01082719443366, -40.97247396456078, 127.52684858907014, 0.1600000075995922, 0.17600000835955143, 0.9760000463575125, 0.0, 0.0, 0.0, 0.0, 0.0, 1.6476302160576448E9, 0.0, 2022-03-18 12:03:36.057
70.0, -11.85361290955916, 68.7187917358242, 13.738522487226874, -26.444832586683333, 0.1600000075995922, 0.17600000835955143, 0.9760000463575125, 0.0, 0.0, 0.0, 0.0, 0.0, 1.6476302160576448E9, 0.0, 2022-03-18 12:03:36.057
71.0, 53.149588220287114, 1.3968526334501803, 62.25624461239204, -78.82587136607617, 0.1600000075995922, 0.1600000075995922, 0.9760000463575125, 0.0, 0.0, 0.0, 0.0, 0.0, 1.647630216071186E9, 0.0, 2022-03-18 12:03:36.071
71.0, -0.8620469397865236, -29.19926890404895, -21.88776449067518, 86.91901487018913, 0.1600000075995922, 0.1600000075995922, 0.9760000463575125, 0.0, 0.0, 0.0, 0.0, 0.0, 1.647630216071186E9, 0.0, 2022-03-18 12:03:36.071
72.0, -24.853505155537277, 22.863878379110247, -31.873297372367233, 65.68386292178184, 0.144000006839633, 0.1600000075995922, 0.9760000463575125, 0.0, 0.0, 0.0, 0.0, 0.0, 1.6476302160869162E9, 0.0, 2022-03-18 12:03:36.086
72.0, 46.698260796722025, 41.907448953483254, 65.51743737375364, -116.07527492474765, 0.144000006839633, 0.1600000075995922, 0.9760000463575125, 0.0, 0.0, 0.0, 0.0, 0.0, 1.6476302160869162E9, 0.0, 2022-03-18 12:03:36.086
73.0, 20.32074640924111, -27.482654824387282, 1.0153828379698098, 45.09945356566459, 0.144000006839633, 0.1600000075995922, 0.9760000463575125, 0.0, 0.0, 0.0, 0.0, 0.0, 1.647630216087644E9, 0.0, 2022-03-18 12:03:36.087
73.0, -27.258260827045888, -9.385278938803822, -41.15198916243389, 116.15381282381713, 0.144000006839633, 0.1600000075995922, 0.9760000463575125, 0.0, 0.0, 0.0, 0.0, 0.0, 1.647630216087644E9, 0.0, 2022-03-18 12:03:36.087
74.0, 20.30952670937404, 63.49789139768109, 46.59354359796271, -92.90285479929298, 0.144000006839633, 0.1600000075995922, 0.9760000463575125, 0.0, 0.0, 0.0, 0.0, 0.0, 1.647630216101179E9, 0.0, 2022-03-18 12:03:36.101
74.0, 42.603070345241576, -22.078499388415366, 38.73601379105821, -22.839569029398263, 0.144000006839633, 0.1600000075995922, 0.9760000463575125, 0.0, 0.0, 0.0, 0.0, 0.0, 1.647630216101179E9, 0.0, 2022-03-18 12:03:36.101
75.0, -25.870757943484932, -25.852058443706483, -45.15368211502209, 130.7618620507419, 0.144000006839633, 0.1600000075995922, 0.9760000463575125, 0.0, 0.0, 0.0, 0.0, 0.0, 1.6476302161169193E9, 0.0, 2022-03-18 12:03:36.116
75.0, -12.033128107432276, 60.14694103738293, 15.327979968395084, -29.231058053672314, 0.144000006839633, 0.1600000075995922, 0.9760000463575125, 0.0, 0.0, 0.0, 0.0, 0.0, 1.6476302161169193E9, 0.0, 2022-03-18 12:03:36.116
76.0, 55.61792219104245, -4.841300492640585, 60.382554734591395, -81.32786443643272, 0.144000006839633, 0.1600000075995922, 0.9760000463575125, 0.0, 0.0, 0.0, 0.0, 0.0, 1.6476302161176503E9, 0.0, 2022-03-18 12:03:36.117
76.0, -3.947464403230697, -25.16765675181523, -29.064632505644113, 94.23799908347428, 0.144000006839633, 0.1600000075995922, 0.9760000463575125, 0.0, 0.0, 0.0, 0.0, 0.0, 1.6476302161176503E9, 0.0, 2022-03-18 12:03:36.117
77.0, -29.016013806220144, 27.92396301915869, -30.41473638964817, 66.6973758097738, 0.144000006839633, 0.1600000075995922, 0.9760000463575125, 0.0, 0.0, 0.0, 0.0, 0.0, 1.6476302161311848E9, 0.0, 2022-03-18 12:03:36.131
77.0, 51.34321654168889, 36.645409715827554, 70.00905722053722, -122.21245075203478, 0.144000006839633, 0.1600000075995922, 0.9760000463575125, 0.0, 0.0, 0.0, 0.0, 0.0, 1.6476302161311848E9, 0.0, 2022-03-18 12:03:36.131
78.0, 17.029634448233992, -24.79740665620193, -0.02056944975629449, 44.62448627129197, 0.144000006839633, 0.1600000075995922, 0.9760000463575125, 0.0, 0.0, 0.0, 0.0, 0.0, 1.6476302161469188E9, 0.0, 2022-03-18 12:03:36.146
78.0, -31.274913379456848, -1.0527818375267088, -47.66689488524571, 120.14802597649395, 0.144000006839633, 0.1600000075995922, 0.9760000463575125, 0.0, 0.0, 0.0, 0.0, 0.0, 1.6476302161469188E9, 0.0, 2022-03-18 12:03:36.146
79.0, 21.9176836903207, 58.804316953290254, 47.34900338901207, -97.74228534195572, 0.144000006839633, 0.1600000075995922, 0.9760000463575125, 0.0, 0.0, 0.0, 0.0, 0.0, 1.6476302161476529E9, 0.0, 2022-03-18 12:03:36.147
79.0, 43.93821462942287, -23.4734820718877, 31.63768367515877, -19.226825672201812, 0.144000006839633, 0.1600000075995922, 0.9760000463575125, 0.0, 0.0, 0.0, 0.0, 0.0, 1.6476302161476529E9, 0.0, 2022-03-18 12:03:36.147
80.0, -22.471188883762807, -27.19094262784347, -44.323424324858934, 131.27422834467143, 0.144000006839633, 0.1600000075995922, 0.9600000455975533, 0.0, 0.0, 0.0, 0.0, 0.0, 1.6476302161611893E9, 0.0, 2022-03-18 12:03:36.161
80.0, -9.546094636898488, 66.91989985713735, 15.036267771851271, -27.76127737108618, 0.144000006839633, 0.1600000075995922, 0.9600000455975533, 0.0, 0.0, 0.0, 0.0, 0.0, 1.6476302161611893E9, 0.0, 2022-03-18 12:03:36.161
81.0, 55.61792219104245, -0.4543978446163237, 61.0856559262611, -79.40181595925242, 0.144000006839633, 0.144000006839633, 0.9600000455975533, 0.0, 0.0, 0.0, 0.0, 0.0, 1.647630216176902E9, 0.0, 2022-03-18 12:03:36.176
81.0, -4.171858400572091, -26.37938433745876, -29.266587103251368, 95.3786685699597, 0.144000006839633, 0.144000006839633, 0.9600000455975533, 0.0, 0.0, 0.0, 0.0, 0.0, 1.647630216176902E9, 0.0, 2022-03-18 12:03:36.176
82.0, -25.721161945257336, 27.796806420665234, -29.292766402941197, 66.71607530955225, 0.144000006839633, 0.144000006839633, 0.9600000455975533, 0.0, 0.0, 0.0, 0.0, 0.0, 1.6476302161776376E9, 0.0, 2022-03-18 12:03:36.177
82.0, 49.81359745981172, 34.43512884201482, 71.82664859900251, -121.46073086094111, 0.144000006839633, 0.144000006839633, 0.9600000455975533, 0.0, 0.0, 0.0, 0.0, 0.0, 1.6476302161776376E9, 0.0, 2022-03-18 12:03:36.177
83.0, 17.265248145442456, -26.686056133825332, 0.3534205458126962, 47.305994539521635, 0.144000006839633, 0.144000006839633, 0.9600000455975533, 0.0, 0.0, 0.0, 0.0, 0.0, 1.647630216191183E9, 0.0, 2022-03-18 12:03:36.191
83.0, -31.783539773430675, -1.1612389362417161, -43.074297739658505, 115.92941882647574, 0.144000006839633, 0.144000006839633, 0.9600000455975533, 0.0, 0.0, 0.0, 0.0, 0.0, 1.647630216191183E9, 0.0, 2022-03-18 12:03:36.191
84.0, 18.099245835561305, 65.02377057960257, 48.60934967407957, -95.66290096659213, 0.144000006839633, 0.144000006839633, 0.9600000455975533, 0.0, 0.0, 0.0, 0.0, 0.0, 1.6476302162232924E9, 0.0, 2022-03-18 12:03:36.223
84.0, 44.708634020294994, -21.416537096258253, 35.72539432672784, -23.153720625676215, 0.144000006839633, 0.144000006839633, 0.9600000455975533, 0.0, 0.0, 0.0, 0.0, 0.0, 1.6476302162232924E9, 0.0, 2022-03-18 12:03:36.223
85.0, -20.73961520427838, -30.37359749013558, -41.870049953926355, 132.15310483425856, 0.144000006839633, 0.144000006839633, 0.9600000455975533, 0.0, 0.0, 0.0, 0.0, 0.0, 1.647630216224018E9, 0.0, 2022-03-18 12:03:36.224
85.0, -11.584340112749487, 68.43081943923607, 10.312774127814919, -30.326848740689456, 0.144000006839633, 0.144000006839633, 0.9600000455975533, 0.0, 0.0, 0.0, 0.0, 0.0, 1.647630216224018E9, 0.0, 2022-03-18 12:03:36.224
86.0, 53.972366210538894, -1.3931127334944904, 60.48727193335071, -76.39493639487773, 0.144000006839633, 0.144000006839633, 0.9600000455975533, 0.0, 0.0, 0.0, 0.0, 0.0, 1.6476302162247727E9, 0.0, 2022-03-18 12:03:36.224
86.0, -3.543555208016187, -29.902370095718652, -22.437529784161597, 95.24777207151055, 0.144000006839633, 0.144000006839633, 0.9600000455975533, 0.0, 0.0, 0.0, 0.0, 0.0, 1.6476302162247727E9, 0.0, 2022-03-18 12:03:36.224
87.0, -28.541046511847526, 29.401223501656204, -25.003101153764874, 63.93732964247465, 0.144000006839633, 0.144000006839633, 0.9600000455975533, 0.0, 0.0, 0.0, 0.0, 0.0, 1.6476302162255177E9, 0.0, 2022-03-18 12:03:36.225
87.0, 42.73770674364641, 37.69258170342073, 70.66353971278295, -115.80974202789366, 0.144000006839633, 0.144000006839633, 0.9600000455975533, 0.0, 0.0, 0.0, 0.0, 0.0, 1.6476302162255177E9, 0.0, 2022-03-18 12:03:36.225
88.0, 17.15305114677176, -28.78787990892306, 3.3939592097885907, 45.4659637613222, 0.144000006839633, 0.144000006839633, 0.9600000455975533, 0.0, 0.0, 0.0, 0.0, 0.0, 1.647630216236216E9, 0.0, 2022-03-18 12:03:36.236
88.0, -30.141723692882806, -4.310234698932618, -43.811058030929416, 116.66617911774665, 0.144000006839633, 0.144000006839633, 0.9600000455975533, 0.0, 0.0, 0.0, 0.0, 0.0, 1.647630216236216E9, 0.0, 2022-03-18 12:03:36.236
89.0, 18.117945335339755, 64.94897258048877, 43.444547835271806, -95.55444386787713, 0.144000006839633, 0.144000006839633, 0.9600000455975533, 0.0, 0.0, 0.0, 0.0, 0.0, 1.6476302162512236E9, 0.0, 2022-03-18 12:03:36.251
89.0, 44.47676022304222, -23.88861096696928, 33.6273104515858, -18.415267381817102, 0.144000006839633, 0.144000006839633, 0.9600000455975533, 0.0, 0.0, 0.0, 0.0, 0.0, 1.6476302162512236E9, 0.0, 2022-03-18 12:03:36.251
90.0, -20.223509010393173, -28.78787990892306, -41.52597915800288, 129.82314716186374, 0.144000006839633, 0.144000006839633, 0.9600000455975533, 0.0, 0.0, 0.0, 0.0, 0.0, 1.6476302162668836E9, 0.0, 2022-03-18 12:03:36.266
90.0, -12.919484396930784, 67.6828394480981, 13.85071948589757, -31.138407031074166, 0.144000006839633, 0.144000006839633, 0.9600000455975533, 0.0, 0.0, 0.0, 0.0, 0.0, 1.6476302162668836E9, 0.0, 2022-03-18 12:03:36.266
91.0, 54.65676790243015, -3.0424086139537394, 60.741585130337626, -71.38347045425326, 0.144000006839633, 0.12800000607967377, 0.9600000455975533, 0.0, 0.0, 0.0, 0.0, 0.0, 1.6476302162676232E9, 0.0, 2022-03-18 12:03:36.267
91.0, -5.2938283872790635, -30.39977678982541, -22.474928783718497, 90.15028843190521, 0.144000006839633, 0.12800000607967377, 0.9600000455975533, 0.0, 0.0, 0.0, 0.0, 0.0, 1.6476302162676232E9, 0.0, 2022-03-18 12:03:36.267
92.0, -29.906109995674342, 29.461061900947243, -24.71886875713244, 62.8078798558563, 0.12800000607967377, 0.12800000607967377, 0.9600000455975533, 0.0, 0.0, 0.0, 0.0, 0.0, 1.6476302162812228E9, 0.0, 2022-03-18 12:03:36.281
92.0, 46.8927355944179, 37.71502110315487, 69.51913032634184, -115.47315103188157, 0.12800000607967377, 0.12800000607967377, 0.9600000455975533, 0.0, 0.0, 0.0, 0.0, 0.0, 1.6476302162812228E9, 0.0, 2022-03-18 12:03:36.281
93.0, 17.1754905465059, -29.62935739895329, -2.3168680225498974, 45.56320116017014, 0.12800000607967377, 0.12800000607967377, 0.9600000455975533, 0.0, 0.0, 0.0, 0.0, 0.0, 1.647630216296884E9, 0.0, 2022-03-18 12:03:36.296
93.0, -35.871250424999744, -0.48431704426184297, -42.56941124564037, 116.66617911774665, 0.12800000607967377, 0.12800000607967377, 0.9600000455975533, 0.0, 0.0, 0.0, 0.0, 0.0, 1.647630216296884E9, 0.0, 2022-03-18 12:03:36.296
94.0, 23.739014968741685, 62.3086032117717, 48.1156828799285, -98.85677552875131, 0.12800000607967377, 0.12800000607967377, 0.9600000455975533, 0.0, 0.0, 0.0, 0.0, 0.0, 1.6476302162976425E9, 0.0, 2022-03-18 12:03:36.297
94.0, 48.55325117474422, -22.878837978933007, 32.47542126523331, -19.31284337118268, 0.12800000607967377, 0.12800000607967377, 0.9600000455975533, 0.0, 0.0, 0.0, 0.0, 0.0, 1.6476302162976425E9, 0.0, 2022-03-18 12:03:36.297
95.0, -21.97004228970036, -23.806333167944103, -45.841823706869036, 136.0613002879545, 0.12800000607967377, 0.12800000607967377, 0.9600000455975533, 0.0, 0.0, 0.0, 0.0, 0.0, 1.6476302163112156E9, 0.0, 2022-03-18 12:03:36.311
95.0, -9.018768743146211, 69.975398120936, 17.220369345974177, -42.37306649796665, 0.12800000607967377, 0.12800000607967377, 0.9600000455975533, 0.0, 0.0, 0.0, 0.0, 0.0, 1.6476302163112156E9, 0.0, 2022-03-18 12:03:36.311
96.0, 59.05489025032148, -9.88268563291058, 58.12365516135469, -75.35898410715163, 0.12800000607967377, 0.12800000607967377, 0.9600000455975533, 0.0, 0.0, 0.0, 0.0, 0.0, 1.6476302163268905E9, 0.0, 2022-03-18 12:03:36.326
96.0, -4.830080792773515, -27.022647129837424, -24.647810657974333, 93.55359739158303, 0.12800000607967377, 0.12800000607967377, 0.9600000455975533, 0.0, 0.0, 0.0, 0.0, 0.0, 1.6476302163268905E9, 0.0, 2022-03-18 12:03:36.326
97.0, -34.1471565454267, 33.17104265699163, -29.378784101922065, 59.64018459338695, 0.12800000607967377, 0.12800000607967377, 0.9600000455975533, 0.0, 0.0, 0.0, 0.0, 0.0, 1.6476302163276408E9, 0.0, 2022-03-18 12:03:36.327
97.0, 50.931827546563, 30.579291987698525, 74.86344736302271, -117.57123490702361, 0.12800000607967377, 0.12800000607967377, 0.9600000455975533, 0.0, 0.0, 0.0, 0.0, 0.0, 1.6476302163276408E9, 0.0, 2022-03-18 12:03:36.327
98.0, 13.622585588600487, -27.09744512895122, -2.8741131159476936, 52.085586682893336, 0.12800000607967377, 0.12800000607967377, 0.9600000455975533, 0.0, 0.0, 0.0, 0.0, 0.0, 1.6476302163412158E9, 0.0, 2022-03-18 12:03:36.341
98.0, -38.75471329083666, 3.3939592097885907, -45.026525516528636, 113.82759505137801, 0.12800000607967377, 0.12800000607967377, 0.9600000455975533, 0.0, 0.0, 0.0, 0.0, 0.0, 1.6476302163412158E9, 0.0, 2022-03-18 12:03:36.341
99.0, 25.829619043972343, 61.81493641762063, 53.99854551022872, -101.82251619361341, 0.12800000607967377, 0.12800000607967377, 0.9600000455975533, 0.0, 0.0, 0.0, 0.0, 0.0, 1.6476302163566298E9, 0.0, 2022-03-18 12:03:36.356
99.0, 42.647949144709855, -26.72719503333792, 31.798499373253435, -17.27459789533168, 0.12800000607967377, 0.12800000607967377, 0.9600000455975533, 0.0, 0.0, 0.0, 0.0, 0.0, 1.6476302163566298E9, 0.0, 2022-03-18 12:03:36.356
100.0, -25.302293150220066, -20.66855710512027, -44.75725271971896, 129.66607136372477, 0.12800000607967377, 0.12800000607967377, 0.9760000463575125, 0.0, 0.0, 0.0, 0.0, 0.0, 1.6476302163726265E9, 0.0, 2022-03-18 12:03:36.372
100.0, -5.929611379746348, 67.53698334982619, 16.438730255234987, -45.91475175600499, 0.12800000607967377, 0.12800000607967377, 0.9760000463575125, 0.0, 0.0, 0.0, 0.0, 0.0, 1.6476302163726265E9, 0.0, 2022-03-18 12:03:36.372
0.0, 59.011881400831044, -8.405425150413066, 62.635844457894564, -77.86097717750818, 0.12800000607967377, 0.12800000607967377, 0.9760000463575125, 0.0, 0.0, 0.0, 0.0, 0.0, 1.6476302163733523E9, 0.0, 2022-03-18 12:03:36.373
1.0, -5.972620229236782, -25.12651785230264, -31.916306221857667, 98.62490173149854, 0.12800000607967377, 0.11200000531971455, 0.9760000463575125, 0.0, 0.0, 0.0, 0.0, 0.0, 1.6476302163740835E9, 0.0, 2022-03-18 12:03:36.374
1.0, -31.77419002354145, 35.54587912885472, -25.76791069470346, 59.318553197197616, 0.12800000607967377, 0.11200000531971455, 0.9760000463575125, 0.0, 0.0, 0.0, 0.0, 0.0, 1.6476302163740835E9, 0.0, 2022-03-18 12:03:36.374
2.0, 51.18053089361638, 30.904663283843547, 72.20624844450504, -117.05886861309409, 0.12800000607967377, 0.11200000531971455, 0.9760000463575125, 0.0, 0.0, 0.0, 0.0, 0.0, 1.647630216386211E9, 0.0, 2022-03-18 12:03:36.386
2.0, 15.146594820544124, -27.247041127178818, -5.329357436858118, 52.76998837478459, 0.12800000607967377, 0.11200000531971455, 0.9760000463575125, 0.0, 0.0, 0.0, 0.0, 0.0, 1.647630216386211E9, 0.0, 2022-03-18 12:03:36.386
3.0, -35.54026927892119, -0.6713120420463383, -46.505655949003994, 114.9084261385724, 0.12800000607967377, 0.11200000531971455, 0.9760000463575125, 0.0, 0.0, 0.0, 0.0, 0.0, 1.647630216401874E9, 0.0, 2022-03-18 12:03:36.401
3.0, 28.303562864661217, 56.95306647522375, 52.59047317691147, -100.4537128098309, 0.12800000607967377, 0.11200000531971455, 0.9760000463575125, 0.0, 0.0, 0.0, 0.0, 0.0, 1.647630216401874E9, 0.0, 2022-03-18 12:03:36.401
4.0, 45.33880716282874, -26.37190453754738, 30.495144238695502, -10.43058097641915, 0.12800000607967377, 0.11200000531971455, 0.9760000463575125, 0.0, 0.0, 0.0, 0.0, 0.0, 1.647630216402605E9, 0.0, 2022-03-18 12:03:36.402
4.0, -28.494297762401402, -21.52125429501757, -49.325540515594184, 136.64472468104213, 0.12800000607967377, 0.11200000531971455, 0.9760000463575125, 0.0, 0.0, 0.0, 0.0, 0.0, 1.647630216402605E9, 0.0, 2022-03-18 12:03:36.402
5.0, -12.992412446066737, 73.17675248300657, 18.228272384032607, -43.659592082723975, 0.12800000607967377, 0.11200000531971455, 0.9760000463575125, 0.0, 0.0, 0.0, 0.0, 0.0, 1.6476302164161952E9, 0.0, 2022-03-18 12:03:36.416
5.0, 57.18681022245437, -4.8113812929950655, 60.3245862852782, -74.97003451175988, 0.12800000607967377, 0.11200000531971455, 0.9760000463575125, 0.0, 0.0, 0.0, 0.0, 0.0, 1.6476302164161952E9, 0.0, 2022-03-18 12:03:36.416
6.0, -6.634582521393895, -24.647810657974333, -32.29029621742666, 99.37288172263652, 0.12800000607967377, 0.11200000531971455, 0.9760000463575125, 0.0, 0.0, 0.0, 0.0, 0.0, 1.6476302164318724E9, 0.0, 2022-03-18 12:03:36.431
6.0, -31.39646012801677, 33.67592915100977, -22.55533663276583, 54.61375905293971, 0.12800000607967377, 0.11200000531971455, 0.9760000463575125, 0.0, 0.0, 0.0, 0.0, 0.0, 1.6476302164318724E9, 0.0, 2022-03-18 12:03:36.431
7.0, 52.72136967536062, 29.476021500770003, 75.72923420276493, -119.08215448912233, 0.12800000607967377, 0.11200000531971455, 0.9760000463575125, 0.0, 0.0, 0.0, 0.0, 0.0, 1.6476302164326007E9, 0.0, 2022-03-18 12:03:36.432
7.0, 17.33817619457841, -26.880530931521207, -5.060084640048444, 51.99956898391247, 0.12800000607967377, 0.11200000531971455, 0.9760000463575125, 0.0, 0.0, 0.0, 0.0, 0.0, 1.6476302164326007E9, 0.0, 2022-03-18 12:03:36.432
8.0, -32.56330891419202, 1.1911581358872354, -44.22805687598884, 114.26142344623804, 0.12800000607967377, 0.11200000531971455, 0.9760000463575125, 0.0, 0.0, 0.0, 0.0, 0.0, 1.647630216446189E9, 0.0, 2022-03-18 12:03:36.446
8.0, 29.623747549019754, 58.61358205555007, 55.02888794802129, -104.38808756321669, 0.12800000607967377, 0.11200000531971455, 0.9760000463575125, 0.0, 0.0, 0.0, 0.0, 0.0, 1.647630216446189E9, 0.0, 2022-03-18 12:03:36.446
9.0, 40.832227716222405, -27.11988452868536, 32.93355900980532, -15.008218522183597, 0.12800000607967377, 0.11200000531971455, 0.9760000463575125, 0.0, 0.0, 0.0, 0.0, 0.0, 1.6476302164618804E9, 0.0, 2022-03-18 12:03:36.461
9.0, -27.963231968693435, -24.213982263114303, -47.92681793216616, 134.87201210204512, 0.12800000607967377, 0.11200000531971455, 0.9760000463575125, 0.0, 0.0, 0.0, 0.0, 0.0, 1.6476302164618804E9, 0.0, 2022-03-18 12:03:36.461
10.0, -7.1020700158551335, 72.56714879022911, 20.92474025208503, -43.96252397913486, 0.12800000607967377, 0.11200000531971455, 0.9760000463575125, 0.0, 0.0, 0.0, 0.0, 0.0, 1.6476302164626043E9, 0.0, 2022-03-18 12:03:36.462
10.0, 57.22046932205558, -6.109126577619463, 61.07256627641618, -74.89523651264608, 0.12800000607967377, 0.11200000531971455, 0.9760000463575125, 0.0, 0.0, 0.0, 0.0, 0.0, 1.6476302164626043E9, 0.0, 2022-03-18 12:03:36.462
11.0, -4.693574444390833, -22.70306268101558, -28.430719463154674, 100.7529048062861, 0.12800000607967377, 0.09600000455975533, 0.9760000463575125, 0.0, 0.0, 0.0, 0.0, 0.0, 1.6476302164761825E9, 0.0, 2022-03-18 12:03:36.476
11.0, -34.418299292214215, 36.652889515738934, -25.77539049461484, 56.62956512905657, 0.12800000607967377, 0.09600000455975533, 0.9760000463575125, 0.0, 0.0, 0.0, 0.0, 0.0, 1.6476302164761825E9, 0.0, 2022-03-18 12:03:36.476
12.0, 54.45294335484505, 28.44380911299959, 71.02444005850703, -120.49583667237312, 0.12800000607967377, 0.09600000455975533, 0.9760000463575125, 0.0, 0.0, 0.0, 0.0, 0.0, 1.64763021649195E9, 0.0, 2022-03-18 12:03:36.491
12.0, 15.131635220721364, -24.79740665620193, -5.740746431984007, 56.32663323264569, 0.12800000607967377, 0.09600000455975533, 0.9760000463575125, 0.0, 0.0, 0.0, 0.0, 0.0, 1.64763021649195E9, 0.0, 2022-03-18 12:03:36.491
13.0, -36.000276973471045, 3.0311889140866697, -45.83247395697981, 113.3526277570054, 0.12800000607967377, 0.09600000455975533, 0.9760000463575125, 0.0, 0.0, 0.0, 0.0, 0.0, 1.647630216492601E9, 0.0, 2022-03-18 12:03:36.492
13.0, 27.83981527015567, 58.815536653157324, 54.905471249483526, -105.16598675400019, 0.12800000607967377, 0.09600000455975533, 0.9760000463575125, 0.0, 0.0, 0.0, 0.0, 0.0, 1.647630216492601E9, 0.0, 2022-03-18 12:03:36.492
14.0, 44.25423617567867, -25.347171949688345, 32.87372061051428, -13.66559443809092, 0.12800000607967377, 0.09600000455975533, 0.9760000463575125, 0.0, 0.0, 0.0, 0.0, 0.0, 1.6476302165061944E9, 0.0, 2022-03-18 12:03:36.506
14.0, -29.257237353362143, -25.033020353410393, -49.77806841023266, 137.27676777355373, 0.12800000607967377, 0.09600000455975533, 0.9760000463575125, 0.0, 0.0, 0.0, 0.0, 0.0, 1.6476302165061944E9, 0.0, 2022-03-18 12:03:36.506
15.0, -7.801431307569146, 69.13392063090578, 20.92474025208503, -44.66562517080456, 0.12800000607967377, 0.09600000455975533, 0.9760000463575125, 0.0, 0.0, 0.0, 0.0, 0.0, 1.6476302165219896E9, 0.0, 2022-03-18 12:03:36.521
15.0, 55.709549739956856, -9.400238538626581, 63.95228924229741, -69.9585685711354, 0.12800000607967377, 0.09600000455975533, 0.9760000463575125, 0.0, 0.0, 0.0, 0.0, 0.0, 1.6476302165219896E9, 0.0, 2022-03-18 12:03:36.521
16.0, -9.67512118536979, -25.855798343662173, -30.887833734042943, 101.48218529764563, 0.12800000607967377, 0.09600000455975533, 0.9760000463575125, 0.0, 0.0, 0.0, 0.0, 0.0, 1.6476302165226507E9, 0.0, 2022-03-18 12:03:36.522
16.0, -31.130927231162786, 36.91468251263723, -26.93101958092302, 55.85914573818445, 0.12800000607967377, 0.09600000455975533, 0.9760000463575125, 0.0, 0.0, 0.0, 0.0, 0.0, 1.6476302165226507E9, 0.0, 2022-03-18 12:03:36.522
17.0, 53.693743663839996, 26.469141936395317, 74.05001912266016, -119.64687938243151, 0.12800000607967377, 0.09600000455975533, 0.9760000463575125, 0.0, 0.0, 0.0, 0.0, 0.0, 1.6476302165361924E9, 0.0, 2022-03-18 12:03:36.536
17.0, 12.184594055637717, -24.494474759791046, -6.1783147267997265, 51.86867248546332, 0.12800000607967377, 0.09600000455975533, 0.9760000463575125, 0.0, 0.0, 0.0, 0.0, 0.0, 1.6476302165361924E9, 0.0, 2022-03-18 12:03:36.536
18.0, -36.09377447236329, 5.174151588696986, -46.55427464842796, 111.86414757464081, 0.12800000607967377, 0.09600000455975533, 0.9760000463575125, 0.0, 0.0, 0.0, 0.0, 0.0, 1.6476302165519197E9, 0.0, 2022-03-18 12:03:36.551
18.0, 28.62519426085055, 59.159607449080795, 52.160384682007134, -103.69246617145836, 0.12800000607967377, 0.09600000455975533, 0.9760000463575125, 0.0, 0.0, 0.0, 0.0, 0.0, 1.6476302165519197E9, 0.0, 2022-03-18 12:03:36.551
19.0, 38.61446704249829, -30.605471287388355, 31.149626730941236, -12.996152346022427, 0.12800000607967377, 0.09600000455975533, 0.9760000463575125, 0.0, 0.0, 0.0, 0.0, 0.0, 1.647630216552652E9, 0.0, 2022-03-18 12:03:36.552
19.0, -28.1988456659019, -25.459368948359042, -48.76829542219639, 136.55870698206127, 0.12800000607967377, 0.09600000455975533, 0.9760000463575125, 0.0, 0.0, 0.0, 0.0, 0.0, 1.647630216552652E9, 0.0, 2022-03-18 12:03:36.552
20.0, -8.904701794497669, 68.04186984384432, 18.654620978981256, -44.115859877318144, 0.12800000607967377, 0.09600000455975533, 0.9760000463575125, 0.0, 0.0, 0.0, 0.0, 0.0, 1.6476302165661893E9, 0.0, 2022-03-18 12:03:36.566
20.0, 55.27198144514114, -10.424971126485616, 61.742008368484676, -68.80293948482722, 0.12800000607967377, 0.09600000455975533, 0.9760000463575125, 0.0, 0.0, 0.0, 0.0, 0.0, 1.6476302165661893E9, 0.0, 2022-03-18 12:03:36.566
21.0, -8.302577901631594, -30.00334739452228, -29.605048049241304, 104.04401676729321, 0.12800000607967377, 0.09600000455975533, 0.9760000463575125, 0.0, 0.0, 0.0, 0.0, 0.0, 1.6476302165819142E9, 0.0, 2022-03-18 12:03:36.581
21.0, -31.32166212890297, 36.671589015517384, -24.313089611940086, 56.491188830696046, 0.12800000607967377, 0.09600000455975533, 0.9760000463575125, 0.0, 0.0, 0.0, 0.0, 0.0, 1.6476302165819142E9, 0.0, 2022-03-18 12:03:36.581
22.0, 53.21877636946738, 29.891150395851582, 75.3328048074618, -120.04704867769033, 0.12800000607967377, 0.09600000455975533, 0.9760000463575125, 0.0, 0.0, 0.0, 0.0, 0.0, 1.6476302165826457E9, 0.0, 2022-03-18 12:03:36.582
22.0, 12.412727952934802, -27.351758325938135, -8.07444400433451, 59.86083869077265, 0.12800000607967377, 0.09600000455975533, 0.9760000463575125, 0.0, 0.0, 0.0, 0.0, 0.0, 1.6476302165826457E9, 0.0, 2022-03-18 12:03:36.582
23.0, -33.07193530816585, 1.7409234293736517, -45.15555206499994, 116.34080782160163, 0.12800000607967377, 0.09600000455975533, 0.9760000463575125, 0.0, 0.0, 0.0, 0.0, 0.0, 1.6476302165961924E9, 0.0, 2022-03-18 12:03:36.596
23.0, 30.510103838518262, 58.781877553556114, 56.00500183645636, -107.00975743215531, 0.12800000607967377, 0.09600000455975533, 0.9760000463575125, 0.0, 0.0, 0.0, 0.0, 0.0, 1.6476302165961924E9, 0.0, 2022-03-18 12:03:36.596
24.0, 40.26376292295754, -25.14521735208109, 27.903393569402397, -4.966587141156197, 0.12800000607967377, 0.09600000455975533, 0.9760000463575125, 0.0, 0.0, 0.0, 0.0, 0.0, 1.6476302166119156E9, 0.0, 2022-03-18 12:03:36.611
24.0, -28.340961864218116, -21.633451293688267, -51.21418999321759, 136.248295285739, 0.12800000607967377, 0.09600000455975533, 0.9760000463575125, 0.0, 0.0, 0.0, 0.0, 0.0, 1.6476302166119156E9, 0.0, 2022-03-18 12:03:36.611
25.0, -1.8662100778892636, 70.05767591996118, 20.52457095682621, -50.18571750540286, 0.12800000607967377, 0.09600000455975533, 0.9760000463575125, 0.0, 0.0, 0.0, 0.0, 0.0, 1.6476302166126454E9, 0.0, 2022-03-18 12:03:36.612
25.0, 57.20550972223282, -9.303001139778644, 57.773974515497684, -72.02299334667623, 0.12800000607967377, 0.09600000455975533, 0.9760000463575125, 0.0, 0.0, 0.0, 0.0, 0.0, 1.6476302166126454E9, 0.0, 2022-03-18 12:03:36.612
26.0, -8.123062703758478, -28.989834506530315, -28.651373560540378, 100.52103100903332, 0.12800000607967377, 0.09600000455975533, 0.9760000463575125, 0.0, 0.0, 0.0, 0.0, 0.0, 1.647630216626207E9, 0.0, 2022-03-18 12:03:36.626
26.0, -32.73534431215376, 36.55939201684669, -26.91979988105595, 52.62787217646837, 0.12800000607967377, 0.09600000455975533, 0.9760000463575125, 0.0, 0.0, 0.0, 0.0, 0.0, 1.647630216626207E9, 0.0, 2022-03-18 12:03:36.626
27.0, 56.74176212772727, 28.152096916455775, 71.88087714836001, -117.93774510268122, 0.12800000607967377, 0.09600000455975533, 0.9760000463575125, 0.0, 0.0, 0.0, 0.0, 0.0, 1.6476302166419115E9, 0.0, 2022-03-18 12:03:36.641
27.0, 12.999892245978117, -28.260554015170783, -4.787071943283081, 55.25328194536269, 0.12800000607967377, 0.09600000455975533, 0.9760000463575125, 0.0, 0.0, 0.0, 0.0, 0.0, 1.6476302166419115E9, 0.0, 2022-03-18 12:03:36.641
28.0, -38.36389374546707, 4.194297800306231, -43.614713283255696, 109.11158120725304, 0.12800000607967377, 0.09600000455975533, 0.9760000463575125, 0.0, 0.0, 0.0, 0.0, 0.0, 1.6476302166426516E9, 0.0, 2022-03-18 12:03:36.642
28.0, 27.563062673434615, 58.48642545705661, 57.385024920105934, -106.57218913733959, 0.12800000607967377, 0.09600000455975533, 0.9760000463575125, 0.0, 0.0, 0.0, 0.0, 0.0, 1.6476302166426516E9, 0.0, 2022-03-18 12:03:36.642
29.0, 37.604694054462016, -24.74504805682227, 30.56620233785361, -7.24044631421566, 0.12800000607967377, 0.09600000455975533, 0.9760000463575125, 0.0, 0.0, 0.0, 0.0, 0.0, 1.647630216656181E9, 0.0, 2022-03-18 12:03:36.656
29.0, -31.284263129346073, -20.403024208266288, -50.24929580464959, 137.321646573022, 0.12800000607967377, 0.09600000455975533, 0.9760000463575125, 0.0, 0.0, 0.0, 0.0, 0.0, 1.647630216656181E9, 0.0, 2022-03-18 12:03:36.656
30.0, -6.0174990287050605, 73.67415917711332, 19.948626363649964, -47.246156140230596, 0.12800000607967377, 0.09600000455975533, 0.9760000463575125, 0.0, 0.0, 0.0, 0.0, 0.0, 1.647630216671914E9, 0.0, 2022-03-18 12:03:36.671
30.0, 59.08667939994484, -9.549834536854178, 57.67673711664975, -69.18440928030759, 0.12800000607967377, 0.09600000455975533, 0.9760000463575125, 0.0, 0.0, 0.0, 0.0, 0.0, 1.647630216671914E9, 0.0, 2022-03-18 12:03:36.671
31.0, -6.518645622767508, -28.36153131397441, -32.53712961450219, 102.53683708515018, 0.12800000607967377, 0.11200000531971455, 0.9760000463575125, 0.0, 0.0, 0.0, 0.0, 0.0, 1.647630216672649E9, 0.0, 2022-03-18 12:03:36.672
31.0, -30.360507840290666, 39.22594068525359, -24.96009230427444, 55.55621384177357, 0.12800000607967377, 0.11200000531971455, 0.9760000463575125, 0.0, 0.0, 0.0, 0.0, 0.0, 1.647630216672649E9, 0.0, 2022-03-18 12:03:36.672
32.0, 57.788934115320444, 25.257414350751787, 72.2212080443278, -123.95150423143059, 0.12800000607967377, 0.11200000531971455, 0.9760000463575125, 0.0, 0.0, 0.0, 0.0, 0.0, 1.6476302166861827E9, 0.0, 2022-03-18 12:03:36.686
32.0, 16.44060020521283, -29.96968829492107, -6.398968824185431, 53.98171596042812, 0.12800000607967377, 0.11200000531971455, 0.9760000463575125, 0.0, 0.0, 0.0, 0.0, 0.0, 1.6476302166861827E9, 0.0, 2022-03-18 12:03:36.686
33.0, -35.80954207573086, 1.568888031411916, -41.5016698082909, 107.97465162072331, 0.12800000607967377, 0.11200000531971455, 0.9760000463575125, 0.0, 0.0, 0.0, 0.0, 0.0, 1.6476302167019093E9, 0.0, 2022-03-18 12:03:36.701
33.0, 28.10160826705396, 55.950773287098855, 58.981962201185524, -105.52127724979073, 0.12800000607967377, 0.11200000531971455, 0.9760000463575125, 0.0, 0.0, 0.0, 0.0, 0.0, 1.6476302167019093E9, 0.0, 2022-03-18 12:03:36.701
34.0, 38.61820694245398, -26.75337433302775, 26.12694109044969, -4.81325124297291, 0.12800000607967377, 0.11200000531971455, 0.9760000463575125, 0.0, 0.0, 0.0, 0.0, 0.0, 1.647630216702644E9, 0.0, 2022-03-18 12:03:36.702
34.0, -29.33577525243163, -22.213135786820203, -47.78470173384994, 138.83256615512073, 0.12800000607967377, 0.11200000531971455, 0.9760000463575125, 0.0, 0.0, 0.0, 0.0, 0.0, 1.647630216702644E9, 0.0, 2022-03-18 12:03:36.702
35.0, -4.742193143814802, 72.7204846884124, 21.69889954291284, -51.760215386748314, 0.12800000607967377, 0.11200000531971455, 0.9760000463575125, 0.0, 0.0, 0.0, 0.0, 0.0, 1.6476302167161703E9, 0.0, 2022-03-18 12:03:36.716
35.0, 55.735729039646685, -15.11106577096507, 58.106825611554086, -67.99138119444251, 0.12800000607967377, 0.11200000531971455, 0.9760000463575125, 0.0, 0.0, 0.0, 0.0, 0.0, 1.6476302167161703E9, 0.0, 2022-03-18 12:03:36.716
36.0, -8.403555200435221, -27.97632161853835, -31.942485521547496, 102.61163508426398, 0.12800000607967377, 0.11200000531971455, 0.9760000463575125, 0.0, 0.0, 0.0, 0.0, 0.0, 1.647630216731938E9, 0.0, 2022-03-18 12:03:36.731
36.0, -33.32998840510845, 40.15343587426469, -20.831242753192782, 52.22770288120955, 0.12800000607967377, 0.11200000531971455, 0.9760000463575125, 0.0, 0.0, 0.0, 0.0, 0.0, 1.647630216731938E9, 0.0, 2022-03-18 12:03:36.731
37.0, 53.95553666073829, 26.977768330369145, 75.26548660825938, -116.239830522798, 0.12800000607967377, 0.11200000531971455, 0.9760000463575125, 0.0, 0.0, 0.0, 0.0, 0.0, 1.647630216732705E9, 0.0, 2022-03-18 12:03:36.732
37.0, 11.186040767468512, -28.458768712822348, -6.0548980282619596, 60.06279328837991, 0.12800000607967377, 0.11200000531971455, 0.9760000463575125, 0.0, 0.0, 0.0, 0.0, 0.0, 1.647630216732705E9, 0.0, 2022-03-18 12:03:36.732
38.0, -38.10958054848015, 7.376952662598342, -44.119599777273834, 109.34345500450581, 0.12800000607967377, 0.11200000531971455, 0.9760000463575125, 0.0, 0.0, 0.0, 0.0, 0.0, 1.647630216746245E9, 0.0, 2022-03-18 12:03:36.746
38.0, 31.613374325446784, 55.131735196802765, 57.1381915230304, -109.534189902246, 0.12800000607967377, 0.11200000531971455, 0.9760000463575125, 0.0, 0.0, 0.0, 0.0, 0.0, 1.647630216746245E9, 0.0, 2022-03-18 12:03:36.746
39.0, 39.3138283342123, -28.80657940870151, 27.42468637507409, -8.03330510482192, 0.12800000607967377, 0.11200000531971455, 0.9760000463575125, 0.0, 0.0, 0.0, 0.0, 0.0, 1.6476302167623074E9, 0.0, 2022-03-18 12:03:36.762
39.0, -31.074828731827438, -21.337999197188765, -48.19983062893152, 138.17060386296362, 0.12800000607967377, 0.11200000531971455, 0.9760000463575125, 0.0, 0.0, 0.0, 0.0, 0.0, 1.6476302167623074E9, 0.0, 2022-03-18 12:03:36.762
40.0, -0.49366679415106773, 68.83846853440627, 20.015944562852383, -52.04070788342506, 0.12800000607967377, 0.11200000531971455, 0.9760000463575125, 0.0, 0.0, 0.0, 0.0, 0.0, 1.647630216776901E9, 0.0, 2022-03-18 12:03:36.776
40.0, 57.744055315852165, -14.243408981245011, 55.64971134066582, -66.63753741048276, 0.12800000607967377, 0.11200000531971455, 0.9760000463575125, 0.0, 0.0, 0.0, 0.0, 0.0, 1.647630216776901E9, 0.0, 2022-03-18 12:03:36.776
41.0, -8.972019993700087, -29.386263901833445, -31.306702529080212, 107.50342422630638, 0.12800000607967377, 0.09600000455975533, 0.9760000463575125, 0.0, 0.0, 0.0, 0.0, 0.0, 1.6476302167776532E9, 0.0, 2022-03-18 12:03:36.777
41.0, -30.95141203328967, 42.35997684812173, -19.76537126582116, 47.09282024204731, 0.12800000607967377, 0.09600000455975533, 0.9760000463575125, 0.0, 0.0, 0.0, 0.0, 0.0, 1.6476302167776532E9, 0.0, 2022-03-18 12:03:36.777
42.0, 59.19513649865985, 26.525240435730666, 72.94300873577595, -122.85197364445776, 0.12800000607967377, 0.09600000455975533, 0.9760000463575125, 0.0, 0.0, 0.0, 0.0, 0.0, 1.6476302167919059E9, 0.0, 2022-03-18 12:03:36.791
42.0, 13.549657539464533, -26.30458633834496, -8.04452480468899, 61.86542506702244, 0.12800000607967377, 0.09600000455975533, 0.9760000463575125, 0.0, 0.0, 0.0, 0.0, 0.0, 1.6476302167919059E9, 0.0, 2022-03-18 12:03:36.791
43.0, -36.92777216248214, 6.995482867117971, -41.0192227140069, 107.8661945220083, 0.12800000607967377, 0.09600000455975533, 0.9760000463575125, 0.0, 0.0, 0.0, 0.0, 0.0, 1.647630216792646E9, 0.0, 2022-03-18 12:03:36.792
43.0, 30.472704838961363, 57.47665246902034, 54.583839853294194, -107.95221222098917, 0.12800000607967377, 0.09600000455975533, 0.9760000463575125, 0.0, 0.0, 0.0, 0.0, 0.0, 1.647630216792646E9, 0.0, 2022-03-18 12:03:36.792
44.0, 40.046848725527525, -26.465402036439627, 27.462085374630988, -7.479799911379814, 0.12800000607967377, 0.09600000455975533, 0.9760000463575125, 0.0, 0.0, 0.0, 0.0, 0.0, 1.6476302168063087E9, 0.0, 2022-03-18 12:03:36.806
44.0, -31.602154625579715, -20.859292002860457, -47.276075339876115, 133.72012291569263, 0.12800000607967377, 0.09600000455975533, 0.9760000463575125, 0.0, 0.0, 0.0, 0.0, 0.0, 1.6476302168063087E9, 0.0, 2022-03-18 12:03:36.806
45.0, -5.164801838807762, 70.64110031304881, 20.13188146147877, -55.40287794359028, 0.12800000607967377, 0.09600000455975533, 0.9760000463575125, 0.0, 0.0, 0.0, 0.0, 0.0, 1.6476302168219054E9, 0.0, 2022-03-18 12:03:36.821
45.0, 55.90028463769704, -10.185617529321462, 56.102239235304296, -62.7704808562994, 0.12800000607967377, 0.09600000455975533, 0.9760000463575125, 0.0, 0.0, 0.0, 0.0, 0.0, 1.6476302168219054E9, 0.0, 2022-03-18 12:03:36.821
46.0, -9.357229689136147, -26.6972758336924, -34.003170397132635, 106.48243153840303, 0.12800000607967377, 0.09600000455975533, 0.9760000463575125, 0.0, 0.0, 0.0, 0.0, 0.0, 1.647630216822638E9, 0.0, 2022-03-18 12:03:36.822
46.0, -30.046356244012713, 40.00383987603709, -20.50961135700345, 45.4285647617653, 0.12800000607967377, 0.09600000455975533, 0.9760000463575125, 0.0, 0.0, 0.0, 0.0, 0.0, 1.647630216822638E9, 0.0, 2022-03-18 12:03:36.822
47.0, 55.26450164522976, 24.68146975757554, 74.15099642146379, -116.77837611641735, 0.12800000607967377, 0.09600000455975533, 0.9760000463575125, 0.0, 0.0, 0.0, 0.0, 0.0, 1.6476302168362277E9, 0.0, 2022-03-18 12:03:36.836
47.0, 10.138868779875338, -27.890303919557482, -8.179161203093827, 61.54005377087742, 0.12800000607967377, 0.09600000455975533, 0.9760000463575125, 0.0, 0.0, 0.0, 0.0, 0.0, 1.6476302168362277E9, 0.0, 2022-03-18 12:03:36.836
48.0, -38.11706034839153, 8.857953045051545, -43.53617538418621, 111.82300867512822, 0.12800000607967377, 0.09600000455975533, 0.9760000463575125, 0.0, 0.0, 0.0, 0.0, 0.0, 1.6476302168519049E9, 0.0, 2022-03-18 12:03:36.851
48.0, 34.89700648654252, 54.361315805930644, 60.03287408873439, -110.00167739670724, 0.12800000607967377, 0.09600000455975533, 0.9760000463575125, 0.0, 0.0, 0.0, 0.0, 0.0, 1.6476302168519049E9, 0.0, 2022-03-18 12:03:36.851
49.0, 40.432058420963585, -29.094551705289632, 26.785163482651114, 1.009772988036275, 0.12800000607967377, 0.09600000455975533, 0.9760000463575125, 0.0, 0.0, 0.0, 0.0, 0.0, 1.6476302168526359E9, 0.0, 2022-03-18 12:03:36.852
49.0, -30.098714843392372, -21.618491693865508, -48.70097722299397, 138.40995746012777, 0.12800000607967377, 0.09600000455975533, 0.9760000463575125, 0.0, 0.0, 0.0, 0.0, 0.0, 1.6476302168526359E9, 0.0, 2022-03-18 12:03:36.852
50.0, -2.5094728702679276, 68.73001143569127, 23.075182726606727, -62.48624845966697, 0.12800000607967377, 0.09600000455975533, 0.9760000463575125, 0.0, 0.0, 0.0, 0.0, 0.0, 1.6476302168662512E9, 0.0, 2022-03-18 12:03:36.866
50.0, 56.091019535437226, -13.581446689087898, 57.388764820061624, -66.00923421792686, 0.12800000607967377, 0.09600000455975533, 0.9760000463575125, 0.0, 0.0, 0.0, 0.0, 0.0, 1.6476302168662512E9, 0.0, 2022-03-18 12:03:36.866
51.0, -10.621315874159336, -24.973181954119354, -33.81617539934814, 107.63806062471122, 0.12800000607967377, 0.09600000455975533, 0.9760000463575125, 0.0, 0.0, 0.0, 0.0, 0.0, 1.6476302168819084E9, 0.0, 2022-03-18 12:03:36.881
51.0, -31.72931122407317, 41.62321655685082, -23.879261217080057, 42.37306649796665, 0.12800000607967377, 0.09600000455975533, 0.9760000463575125, 0.0, 0.0, 0.0, 0.0, 0.0, 1.6476302168819084E9, 0.0, 2022-03-18 12:03:36.881
52.0, 56.40143123175949, 24.01202766550705, 75.5908579044044, -117.22342421114445, 0.12800000607967377, 0.09600000455975533, 0.9760000463575125, 0.0, 0.0, 0.0, 0.0, 0.0, 1.647630216882635E9, 0.0, 2022-03-18 12:03:36.882
52.0, 11.735806060954928, -29.341385102365166, -6.713120420463383, 63.346425449475646, 0.12800000607967377, 0.09600000455975533, 0.9760000463575125, 0.0, 0.0, 0.0, 0.0, 0.0, 1.647630216882635E9, 0.0, 2022-03-18 12:03:36.882
53.0, -34.799769087694585, 6.281161975581199, -42.52266249619424, 107.46602522674948, 0.12800000607967377, 0.09600000455975533, 0.9760000463575125, 0.0, 0.0, 0.0, 0.0, 0.0, 1.6476302168962317E9, 0.0, 2022-03-18 12:03:36.896
53.0, 32.15939971897751, 56.47435928089544, 56.105979135259986, -108.11302791908383, 0.12800000607967377, 0.09600000455975533, 0.9760000463575125, 0.0, 0.0, 0.0, 0.0, 0.0, 1.6476302168962317E9, 0.0, 2022-03-18 12:03:36.896
54.0, 39.601800630800426, -27.856644819956273, 27.447125774808228, 2.367356671951711, 0.12800000607967377, 0.09600000455975533, 0.9760000463575125, 0.0, 0.0, 0.0, 0.0, 0.0, 1.6476302169119003E9, 0.0, 2022-03-18 12:03:36.911
54.0, -30.13611384294927, -22.209395886864513, -48.098853330127895, 135.9528431892395, 0.12800000607967377, 0.09600000455975533, 0.9760000463575125, 0.0, 0.0, 0.0, 0.0, 0.0, 1.6476302169119003E9, 0.0, 2022-03-18 12:03:36.911
55.0, -4.603816845454276, 74.908326162491, 23.36315502319485, -59.793520491570234, 0.12800000607967377, 0.09600000455975533, 0.9760000463575125, 0.0, 0.0, 0.0, 0.0, 0.0, 1.6476302169126308E9, 0.0, 2022-03-18 12:03:36.912
55.0, 59.008141500875354, -15.600992665160447, 57.702916416339576, -58.133004911243916, 0.12800000607967377, 0.09600000455975533, 0.9760000463575125, 0.0, 0.0, 0.0, 0.0, 0.0, 1.6476302169126308E9, 0.0, 2022-03-18 12:03:36.912
56.0, -9.099176592193544, -26.648657134268433, -33.632920301519334, 109.76980359945446, 0.12800000607967377, 0.09600000455975533, 0.9760000463575125, 0.0, 0.0, 0.0, 0.0, 0.0, 1.6476302169262316E9, 0.0, 2022-03-18 12:03:36.926
56.0, -31.82654862292111, 44.60017692157999, -20.59562905598432, 42.500223096460104, 0.12800000607967377, 0.09600000455975533, 0.9760000463575125, 0.0, 0.0, 0.0, 0.0, 0.0, 1.6476302169262316E9, 0.0, 2022-03-18 12:03:36.926
57.0, 60.37320498470217, 20.937829901929945, 75.38142350688577, -114.73639074061066, 0.12800000607967377, 0.09600000455975533, 0.9760000463575125, 0.0, 0.0, 0.0, 0.0, 0.0, 1.6476302169419346E9, 0.0, 2022-03-18 12:03:36.941
57.0, 10.273505178280175, -30.42969598947093, -11.212220067158341, 63.48854164779186, 0.12800000607967377, 0.09600000455975533, 0.9760000463575125, 0.0, 0.0, 0.0, 0.0, 0.0, 1.6476302169419346E9, 0.0, 2022-03-18 12:03:36.941
58.0, -38.042262349277735, 13.06534049520269, -40.009449725970626, 104.84435535781085, 0.12800000607967377, 0.09600000455975533, 0.9760000463575125, 0.0, 0.0, 0.0, 0.0, 0.0, 1.6476302169426355E9, 0.0, 2022-03-18 12:03:36.942
58.0, 33.09437470789999, 56.291104183066636, 58.925863701850176, -113.9061329504475, 0.12800000607967377, 0.09600000455975533, 0.9760000463575125, 0.0, 0.0, 0.0, 0.0, 0.0, 1.6476302169426355E9, 0.0, 2022-03-18 12:03:36.942
59.0, 40.92198531515896, -26.125071140471846, 27.933312769047916, -0.3291111961007118, 0.12800000607967377, 0.09600000455975533, 0.9760000463575125, 0.0, 0.0, 0.0, 0.0, 0.0, 1.6476302169562354E9, 0.0, 2022-03-18 12:03:36.956
59.0, -29.930419345386326, -19.8794382144697, -47.92307803221047, 138.81760655529797, 0.12800000607967377, 0.09600000455975533, 0.9760000463575125, 0.0, 0.0, 0.0, 0.0, 0.0, 1.6476302169562354E9, 0.0, 2022-03-18 12:03:36.956
60.0, -0.2169141974300146, 74.8297882634215, 25.70433239545673, -59.718722492456436, 0.12800000607967377, 0.09600000455975533, 0.9760000463575125, 0.0, 0.0, 0.0, 0.0, 0.0, 1.647630216988282E9, 0.0, 2022-03-18 12:03:36.988
60.0, 58.192843310534954, -17.669157340656966, 59.26993449777365, -63.28658705018461, 0.12800000607967377, 0.09600000455975533, 0.9760000463575125, 0.0, 0.0, 0.0, 0.0, 0.0, 1.647630216988282E9, 0.0, 2022-03-18 12:03:36.988
61.0, -12.569803751073778, -28.604624811094254, -32.54460941441357, 105.41282015107572, 0.12800000607967377, 0.0800000037997961, 0.9760000463575125, 0.0, 0.0, 0.0, 0.0, 0.0, 1.647630216989014E9, 0.0, 2022-03-18 12:03:36.989
61.0, -29.571388949640095, 46.9301345939748, -20.86864175274968, 42.874213092029095, 0.12800000607967377, 0.0800000037997961, 0.9760000463575125, 0.0, 0.0, 0.0, 0.0, 0.0, 1.647630216989014E9, 0.0, 2022-03-18 12:03:36.989
62.0, 57.90113111399114, 21.046287000644952, 68.47382828872651, -114.37362044490874, 0.12800000607967377, 0.0800000037997961, 0.9760000463575125, 0.0, 0.0, 0.0, 0.0, 0.0, 1.6476302169897697E9, 0.0, 2022-03-18 12:03:36.989
62.0, 13.411281241104007, -26.39060403732583, -10.135128879919648, 63.335205749608576, 0.12800000607967377, 0.0800000037997961, 0.9760000463575125, 0.0, 0.0, 0.0, 0.0, 0.0, 1.6476302169897697E9, 0.0, 2022-03-18 12:03:36.989
63.0, -37.36534045729786, 7.481669861357659, -37.223224258981645, 107.83253542240709, 0.12800000607967377, 0.0800000037997961, 0.9760000463575125, 0.0, 0.0, 0.0, 0.0, 0.0, 1.6476302169905114E9, 0.0, 2022-03-18 12:03:36.990
63.0, 33.9433319978416, 54.98587909853086, 58.79870710335672, -110.5327431904152, 0.12800000607967377, 0.0800000037997961, 0.9760000463575125, 0.0, 0.0, 0.0, 0.0, 0.0, 1.6476302169905114E9, 0.0, 2022-03-18 12:03:36.990
64.0, 40.54051551967859, -30.0332665941678, 26.362554787658155, 3.141515962779522, 0.12800000607967377, 0.0800000037997961, 0.9760000463575125, 0.0, 0.0, 0.0, 0.0, 0.0, 1.647630217001197E9, 0.0, 2022-03-18 12:03:37.001
64.0, -28.55039626173675, -18.383478232193738, -50.44377060234547, 133.1740975221619, 0.12800000607967377, 0.0800000037997961, 0.9760000463575125, 0.0, 0.0, 0.0, 0.0, 0.0, 1.647630217001197E9, 0.0, 2022-03-18 12:03:37.001
65.0, -2.6328895688056946, 69.91181982168928, 25.853928393684328, -61.26330117415637, 0.12800000607967377, 0.0800000037997961, 0.9760000463575125, 0.0, 0.0, 0.0, 0.0, 0.0, 1.6476302170162125E9, 0.0, 2022-03-18 12:03:37.016
65.0, 58.71642930433154, -14.568780277390033, 57.51592141855508, -62.68072325736284, 0.12800000607967377, 0.0800000037997961, 0.9760000463575125, 0.0, 0.0, 0.0, 0.0, 0.0, 1.6476302170162125E9, 0.0, 2022-03-18 12:03:37.016
66.0, -14.249018831178546, -31.102877981495112, -33.621700601652265, 109.75858389958739, 0.12800000607967377, 0.0800000037997961, 0.9760000463575125, 0.0, 0.0, 0.0, 0.0, 0.0, 1.6476302170318792E9, 0.0, 2022-03-18 12:03:37.031
66.0, -29.8294420465827, 50.696213849354535, -18.53868408035487, 41.43061170913279, 0.12800000607967377, 0.0800000037997961, 0.9760000463575125, 0.0, 0.0, 0.0, 0.0, 0.0, 1.6476302170318792E9, 0.0, 2022-03-18 12:03:37.031
67.0, 56.04988063592464, 22.089719088282436, 69.04603298194706, -112.9038397623226, 0.12800000607967377, 0.0800000037997961, 0.9760000463575125, 0.0, 0.0, 0.0, 0.0, 0.0, 1.6476302170326116E9, 0.0, 2022-03-18 12:03:37.032
67.0, 10.576437074691057, -28.167056516278535, -13.934867234900594, 65.94191601872444, 0.12800000607967377, 0.0800000037997961, 0.9760000463575125, 0.0, 0.0, 0.0, 0.0, 0.0, 1.6476302170326116E9, 0.0, 2022-03-18 12:03:37.032
68.0, -35.630026877857745, 10.323993827681988, -41.78590220492333, 105.22582515329123, 0.12800000607967377, 0.0800000037997961, 0.9760000463575125, 0.0, 0.0, 0.0, 0.0, 0.0, 1.647630217046208E9, 0.0, 2022-03-18 12:03:37.046
68.0, 34.50431699119508, 53.44504031678662, 56.67818382848054, -111.29942268133163, 0.12800000607967377, 0.0800000037997961, 0.9760000463575125, 0.0, 0.0, 0.0, 0.0, 0.0, 1.647630217046208E9, 0.0, 2022-03-18 12:03:37.046
69.0, 36.25459017045796, -28.851458208169788, 25.666933395899832, 4.300884949043393, 0.12800000607967377, 0.0800000037997961, 0.9760000463575125, 0.0, 0.0, 0.0, 0.0, 0.0, 1.6476302170619924E9, 0.0, 2022-03-18 12:03:37.061
69.0, -32.346394716762006, -16.857599050272256, -47.698684034869075, 132.2877412326634, 0.12800000607967377, 0.0800000037997961, 0.9760000463575125, 0.0, 0.0, 0.0, 0.0, 0.0, 1.6476302170619924E9, 0.0, 2022-03-18 12:03:37.061
70.0, -3.6501423567533493, 73.33756818110123, 26.022223891690373, -63.09959205240011, 0.12800000607967377, 0.0800000037997961, 0.9760000463575125, 0.0, 0.0, 0.0, 0.0, 0.0, 1.647630217062662E9, 0.0, 2022-03-18 12:03:37.062
70.0, 55.92646393738687, -15.197083469945937, 56.87639852613211, -58.03202761244029, 0.12800000607967377, 0.0800000037997961, 0.9760000463575125, 0.0, 0.0, 0.0, 0.0, 0.0, 1.647630217062662E9, 0.0, 2022-03-18 12:03:37.062
71.0, -11.69466716144234, -28.585925311315805, -31.867687522433698, 109.76232379954308, 0.12800000607967377, 0.09600000455975533, 0.9760000463575125, 0.0, 0.0, 0.0, 0.0, 0.0, 1.6476302170762067E9, 0.0, 2022-03-18 12:03:37.076
71.0, -29.279676753096282, 48.51585217518732, -17.091342797502875, 36.72581756487489, 0.12800000607967377, 0.09600000455975533, 0.9760000463575125, 0.0, 0.0, 0.0, 0.0, 0.0, 1.6476302170762067E9, 0.0, 2022-03-18 12:03:37.076
72.0, 58.600492405705154, 22.052320088725537, 71.13289715722203, -116.0528355250135, 0.11200000531971455, 0.09600000455975533, 0.9760000463575125, 0.0, 0.0, 0.0, 0.0, 0.0, 1.6476302170919971E9, 0.0, 2022-03-18 12:03:37.091
