%OpenBCI Raw EEG Data
%Number of channels = 4
%Sample Rate = 200 Hz
%Board = OpenBCI_GUI$BoardGanglionBLE
Sample Index, EXG Channel 0, EXG Channel 1, EXG Channel 2, EXG Channel 3, Accel Channel 0, Accel Channel 1, Accel Channel 2, Other, Other, Other, Other, Other, Timestamp, Other, Timestamp (Formatted)
4.0, 180.8653017571196, 157.5414156834595, 139.09248920204118, -65.55857627326623, 0.0, 0.0, 0.0, 0.0, 0.0, 0.0, 0.0, 0.0, 1.65118738147316E9, 0.0, 2022-04-28 16:09:41.473
4.0, 78.02179287560284, 27.952012268826365, 77.8908963771537, -187.2511809314601, 0.0, 0.0, 0.0, 0.0, 0.0, 0.0, 0.0, 0.0, 1.65118738147316E9, 0.0, 2022-04-28 16:09:41.473
5.0, -15.629041914828122, -99.9544361657463, 212.13086538668722, -82.81260471884161, 0.0, 0.0, 0.0, 0.0, 0.0, 0.0, 0.0, 0.0, 1.651187381487778E9, 0.0, 2022-04-28 16:09:41.487
5.0, 172.44678695686162, -236.48322394816205, 143.76549419667572, -188.97901471098885, 0.0, 0.0, 0.0, 0.0, 0.0, 0.0, 0.0, 0.0, 1.651187381487778E9, 0.0, 2022-04-28 16:09:41.487
6.0, 93.4152210932225, -314.7013615714386, 211.94574033888057, 5.607979983557016, 0.0, 0.0, 0.0, 0.0, 0.0, 0.0, 0.0, 0.0, 1.6511873814884264E9, 0.0, 2022-04-28 16:09:41.488
6.0, 19.840169264934957, -373.83852962078527, 49.7631088104099, -170.41789123089984, 0.0, 0.0, 0.0, 0.0, 0.0, 0.0, 0.0, 0.0, 1.6511873814884264E9, 0.0, 2022-04-28 16:09:41.488
7.0, 87.60715646203607, -211.86907238978893, 225.60572492703795, -178.3651786367409, 0.0, 0.0, 0.0, 0.0, 0.0, 0.0, 0.0, 0.0, 1.6511873815020587E9, 0.0, 2022-04-28 16:09:41.502
7.0, 142.9614157062024, -28.630804110784084, 391.85736760729924, -41.825171154458076, 0.0, 0.0, 0.0, 0.0, 0.0, 0.0, 0.0, 0.0, 1.6511873815020587E9, 0.0, 2022-04-28 16:09:41.502
8.0, 71.1441168570891, -215.18636365048587, 250.13572873640805, -127.5249786390923, 0.0, 0.0, 0.0, 0.0, 0.0, 0.0, 0.0, 0.0, 1.6511873815183313E9, 0.0, 2022-04-28 16:09:41.518
8.0, -1.6754751801490784, 3.4070488596335053, 488.5655706115067, 3.3546902602538466, 0.0, 0.0, 0.0, 0.0, 0.0, 0.0, 0.0, 0.0, 1.6511873815183313E9, 0.0, 2022-04-28 16:09:41.518
9.0, 185.74213129933923, 165.29048839164898, 650.9127577380277, -87.16397831728682, 0.0, 0.0, 0.0, 0.0, 0.0, 0.0, 0.0, 0.0, 1.6511873815192027E9, 0.0, 2022-04-28 16:09:41.519
9.0, 78.04049237538129, 22.652574031613767, 551.2388140689582, -175.79586736718193, 0.0, 0.0, 0.0, 0.0, 0.0, 0.0, 0.0, 0.0, 1.6511873815192027E9, 0.0, 2022-04-28 16:09:41.519
10.0, -17.70094649028033, -109.82403214881197, 690.9539966136217, -54.37440545577556, 0.0, 0.0, 0.9760000463575125, 0.0, 0.0, 0.0, 0.0, 0.0, 1.6511873815319574E9, 0.0, 2022-04-28 16:09:41.531
10.0, 170.1205691844225, -215.87637519231066, 671.1362667484209, -238.64114622259513, 0.0, 0.0, 0.9760000463575125, 0.0, 0.0, 0.0, 0.0, 0.0, 1.6511873815319574E9, 0.0, 2022-04-28 16:09:41.531
11.0, 97.40195444598794, -317.4763673385605, 690.8249700651504, -476.971880748868, 0.0, -0.144000006839633, 0.9760000463575125, 0.0, 0.0, 0.0, 0.0, 0.0, 1.651187381563424E9, 0.0, 2022-04-28 16:09:41.563
11.0, 16.406941105611622, -377.07354308245704, 524.4947894858196, -637.256513049826, 0.0, -0.144000006839633, 0.9760000463575125, 0.0, 0.0, 0.0, 0.0, 0.0, 1.651187381563424E9, 0.0, 2022-04-28 16:09:41.563
12.0, 87.13966896757483, -203.18876459263265, 750.2949892105535, -699.1555972164497, -0.01600000075995922, -0.144000006839633, 0.9760000463575125, 0.0, 0.0, 0.0, 0.0, 0.0, 1.6511873815640943E9, 0.0, 2022-04-28 16:09:41.564
12.0, 141.85440531931818, -35.788972625974566, 880.8492868137546, -509.49031086359173, -0.01600000075995922, -0.144000006839633, 0.9760000463575125, 0.0, 0.0, 0.0, 0.0, 0.0, 1.6511873815640943E9, 0.0, 2022-04-28 16:09:41.564
13.0, 66.09525191690773, -215.18636365048587, 731.3336964352056, -593.5296027678996, -0.01600000075995922, -0.144000006839633, 0.9760000463575125, 0.0, 0.0, 0.0, 0.0, 0.0, 1.6511873815648224E9, 0.0, 2022-04-28 16:09:41.564
13.0, -1.1481492863968015, 5.924001529812813, 496.039760672953, -496.8438391634263, -0.01600000075995922, -0.144000006839633, 0.9760000463575125, 0.0, 0.0, 0.0, 0.0, 0.0, 1.6511873815648224E9, 0.0, 2022-04-28 16:09:41.564
14.0, 186.70328558795154, 177.45638294750825, 658.218652301468, -601.532988673076, -0.01600000075995922, -0.144000006839633, 0.9760000463575125, 0.0, 0.0, 0.0, 0.0, 0.0, 1.651187381577767E9, 0.0, 2022-04-28 16:09:41.577
14.0, 74.76060011424124, 23.34071562346071, 548.8621076471172, -660.75056457147, -0.01600000075995922, -0.144000006839633, 0.9760000463575125, 0.0, 0.0, 0.0, 0.0, 0.0, 1.651187381577767E9, 0.0, 2022-04-28 16:09:41.577
15.0, -16.623855303041637, -116.92236226471141, 668.3481713314541, -521.7702723680995, -0.01600000075995922, -0.144000006839633, 0.9760000463575125, 0.0, 0.0, 0.0, 0.0, 0.0, 1.65118738157849E9, 0.0, 2022-04-28 16:09:41.578
15.0, 177.98557879123837, -205.23261991841719, 702.5439465763047, -736.7528114710003, -0.01600000075995922, -0.144000006839633, 0.9760000463575125, 0.0, 0.0, 0.0, 0.0, 0.0, 1.65118738157849E9, 0.0, 2022-04-28 16:09:41.578
16.0, 96.39592135790735, -322.4579140795395, 687.2402759576216, -946.2451774389483, -0.01600000075995922, -0.144000006839633, 0.9760000463575125, 0.0, 0.0, 0.0, 0.0, 0.0, 1.6511873815920823E9, 0.0, 2022-04-28 16:09:41.592
16.0, 18.706979578360915, -384.8749743900262, 492.87206541048363, -1080.7469394453801, -0.01600000075995922, -0.144000006839633, 0.9760000463575125, 0.0, 0.0, 0.0, 0.0, 0.0, 1.6511873815920823E9, 0.0, 2022-04-28 16:09:41.592
17.0, 91.34705641772598, -179.02527097892016, 301.6678102258593, -1243.8252770132385, -0.01600000075995922, -0.144000006839633, 0.9760000463575125, 0.0, 0.0, 0.0, 0.0, 0.0, 1.6511873816077335E9, 0.0, 2022-04-28 16:09:41.607
17.0, 144.4723352883011, -37.18021540949121, 375.0427774065174, -1488.214649467729, -0.01600000075995922, -0.144000006839633, 0.9760000463575125, 0.0, 0.0, 0.0, 0.0, 0.0, 1.6511873816077335E9, 0.0, 2022-04-28 16:09:41.607
18.0, 69.70425537414849, -221.37215817719698, 223.1822697557509, -1558.7790818316862, -0.01600000075995922, -0.144000006839633, 0.9760000463575125, 0.0, 0.0, 0.0, 0.0, 0.0, 1.651187381608441E9, 0.0, 2022-04-28 16:09:41.608
18.0, -5.22838013805449, 3.335990760475397, 1.9802770265378058, -1478.7695321296342, -0.01600000075995922, -0.144000006839633, 0.9760000463575125, 0.0, 0.0, 0.0, 0.0, 0.0, 1.651187381608441E9, 0.0, 2022-04-28 16:09:41.608
19.0, 182.00597124360502, 171.05367422336712, 182.7876103343442, -1596.3351571867242, -0.01600000075995922, -0.144000006839633, 0.9760000463575125, 0.0, 0.0, 0.0, 0.0, 0.0, 1.6511873816383543E9, 0.0, 2022-04-28 16:09:41.638
19.0, 80.90899564139545, 18.336729482747614, 52.371689029503614, -1620.6220674989745, -0.01600000075995922, -0.144000006839633, 0.9760000463575125, 0.0, 0.0, 0.0, 0.0, 0.0, 1.6511873816383543E9, 0.0, 2022-04-28 16:09:41.638
20.0, -17.3045170949772, -125.25859926594421, 150.24487086990848, -1460.3467849479057, -0.01600000075995922, -0.144000006839633, 0.9760000463575125, 0.0, 0.0, 0.0, 0.0, 0.0, 1.6511873816390765E9, 0.0, 2022-04-28 16:09:41.639
20.0, 171.39213516935706, -198.23526710132137, 240.18011505436152, -1305.9524950771593, -0.01600000075995922, -0.144000006839633, 0.9760000463575125, 0.0, 0.0, 0.0, 0.0, 0.0, 1.6511873816390765E9, 0.0, 2022-04-28 16:09:41.639
21.0, 97.00178515072912, -331.7553053693846, 176.98702550306916, -1415.043506834656, -0.01600000075995922, -0.144000006839633, 0.9760000463575125, 0.0, 0.0, 0.0, 0.0, 0.0, 1.651187381639876E9, 0.0, 2022-04-28 16:09:41.639
21.0, 17.839322788640857, -399.15765232080594, -27.55745282350108, -1539.8888471554965, -0.01600000075995922, -0.144000006839633, 0.9760000463575125, 0.0, 0.0, 0.0, 0.0, 0.0, 1.651187381639876E9, 0.0, 2022-04-28 16:09:41.639
22.0, 87.93626765813679, -168.0785838086158, -153.87070387694985, -1308.764899843838, -0.01600000075995922, -0.144000006839633, 0.9760000463575125, 0.0, 0.0, 0.0, 0.0, 0.0, 1.6511873816519449E9, 0.0, 2022-04-28 16:09:41.651
22.0, 147.04912635777146, -45.74084640806541, -127.5586377386935, -1458.5235837195069, -0.01600000075995922, -0.144000006839633, 0.9760000463575125, 0.0, 0.0, 0.0, 0.0, 0.0, 1.6511873816519449E9, 0.0, 2022-04-28 16:09:41.651
23.0, 69.4387224772945, -225.94231592305005, -259.44433972612023, -1544.6011210996658, -0.01600000075995922, -0.144000006839633, 0.9760000463575125, 0.0, 0.0, 0.0, 0.0, 0.0, 1.651187381667693E9, 0.0, 2022-04-28 16:09:41.667
23.0, -3.339730660431087, 12.408988052979112, -471.1956052673049, -1478.2010673363693, -0.01600000075995922, -0.144000006839633, 0.9760000463575125, 0.0, 0.0, 0.0, 0.0, 0.0, 1.651187381667693E9, 0.0, 2022-04-28 16:09:41.667
24.0, 186.88654068578035, 173.89225828973576, -299.1097186561674, -1586.6936951009557, -0.01600000075995922, -0.144000006839633, 0.9760000463575125, 0.0, 0.0, 0.0, 0.0, 0.0, 1.6511873816684227E9, 0.0, 2022-04-28 16:09:41.668
24.0, 80.61354354489595, 24.769357406534255, -441.4559208196588, -1623.703745062463, -0.01600000075995922, -0.144000006839633, 0.9760000463575125, 0.0, 0.0, 0.0, 0.0, 0.0, 1.6511873816684227E9, 0.0, 2022-04-28 16:09:41.668
25.0, -13.108349344693124, -124.25256617786363, -345.35171165829524, -1432.6191666764207, -0.01600000075995922, -0.144000006839633, 0.9760000463575125, 0.0, 0.0, 0.0, 0.0, 0.0, 1.651187381682017E9, 0.0, 2022-04-28 16:09:41.682
25.0, 173.98762573860586, -187.22500163177028, -202.60534019954503, -1342.427739345003, -0.01600000075995922, -0.144000006839633, 0.9760000463575125, 0.0, 0.0, 0.0, 0.0, 0.0, 1.651187381682017E9, 0.0, 2022-04-28 16:09:41.682
26.0, 95.58810296747833, -332.2227928638458, -325.3787759449333, -1404.9532567542046, -0.01600000075995922, -0.144000006839633, 0.9760000463575125, 0.0, 0.0, 0.0, 0.0, 0.0, 1.651187381697686E9, 0.0, 2022-04-28 16:09:41.697
26.0, 20.247818360105157, -406.0241086394526, -537.0889025866054, -1521.36886257492, -0.01600000075995922, -0.144000006839633, 0.9760000463575125, 0.0, 0.0, 0.0, 0.0, 0.0, 1.651187381697686E9, 0.0, 2022-04-28 16:09:41.697
27.0, 85.65492868516594, -645.6207993007265, -614.3271864214912, -1352.3870929270051, -0.01600000075995922, -0.144000006839633, 0.9760000463575125, 0.0, 0.0, 0.0, 0.0, 0.0, 1.6511873816984954E9, 0.0, 2022-04-28 16:09:41.698
27.0, 144.33769888989627, -549.9074096847326, -633.385716595687, -1446.2267926651984, -0.01600000075995922, -0.144000006839633, 0.9760000463575125, 0.0, 0.0, 0.0, 0.0, 0.0, 1.6511873816984954E9, 0.0, 2022-04-28 16:09:41.698
28.0, 70.38117726612836, -708.6119342544116, -772.3099102997221, -1539.9112865552306, -0.01600000075995922, -0.144000006839633, 0.9760000463575125, 0.0, 0.0, 0.0, 0.0, 0.0, 1.651187381711968E9, 0.0, 2022-04-28 16:09:41.711
28.0, -10.396921876817942, -482.628479431849, -987.6439999984577, -1484.861829157453, -0.01600000075995922, -0.144000006839633, 0.9760000463575125, 0.0, 0.0, 0.0, 0.0, 0.0, 1.651187381711968E9, 0.0, 2022-04-28 16:09:41.711
29.0, 182.4211001386866, -318.2355670295656, -772.2276325006969, -1621.9123329836875, -0.01600000075995922, -0.144000006839633, 0.9760000463575125, 0.0, 0.0, 0.0, 0.0, 0.0, 1.6511873817276108E9, 0.0, 2022-04-28 16:09:41.727
29.0, 78.46684097032994, -470.70567837310955, -938.071626085788, -1603.259581954684, -0.01600000075995922, -0.144000006839633, 0.9760000463575125, 0.0, 0.0, 0.0, 0.0, 0.0, 1.6511873817276108E9, 0.0, 2022-04-28 16:09:41.727
30.0, -16.57149670366198, -625.24395439215, -870.5252929860726, -1427.3178584892303, -0.01600000075995922, -0.144000006839633, 0.9760000463575125, 0.0, 0.0, 0.0, 0.0, 0.0, 1.651187381728439E9, 0.0, 2022-04-28 16:09:41.728
30.0, 171.65392816625535, -659.7894102828577, -671.8973363894038, -1371.0847227554768, -0.01600000075995922, -0.144000006839633, 0.9760000463575125, 0.0, 0.0, 0.0, 0.0, 0.0, 1.651187381728439E9, 0.0, 2022-04-28 16:09:41.728
31.0, 95.87233536411077, -824.3543580831029, -826.3477247594856, -1372.3992975899018, -0.01600000075995922, -0.144000006839633, 0.9760000463575125, 0.0, 0.0, 0.0, 0.0, 0.0, 1.6511873817419593E9, 0.0, 2022-04-28 16:09:41.741
31.0, 22.686233131214976, -910.6394599108025, -1060.3850541366264, -1466.7195744724013, -0.01600000075995922, -0.144000006839633, 0.9760000463575125, 0.0, 0.0, 0.0, 0.0, 0.0, 1.6511873817419593E9, 0.0, 2022-04-28 16:09:41.741
32.0, 87.43138116411865, -1116.2255003750324, -1053.6532342163846, -1405.8433529436588, -0.01600000075995922, -0.144000006839633, 0.9760000463575125, 0.0, 0.0, 0.0, 0.0, 0.0, 1.6511873817735045E9, 0.0, 2022-04-28 16:09:41.773
32.0, 148.09255844540894, -1044.7317028720863, -1128.8065238259733, -1433.0305556715466, -0.01600000075995922, -0.144000006839633, 0.9760000463575125, 0.0, 0.0, 0.0, 0.0, 0.0, 1.6511873817735045E9, 0.0, 2022-04-28 16:09:41.773
33.0, 69.89873017184436, -1216.297743389383, -1273.8230145578273, -1516.8379737786017, -0.01600000075995922, -0.144000006839633, 0.9760000463575125, 0.0, 0.0, 0.0, 0.0, 0.0, 1.6511873817741013E9, 0.0, 2022-04-28 16:09:41.774
33.0, -4.615036545321345, -1451.77867414942, -1464.3802670501173, -1506.0315328566357, -0.01600000075995922, -0.144000006839633, 0.9760000463575125, 0.0, 0.0, 0.0, 0.0, 0.0, 1.6511873817741013E9, 0.0, 2022-04-28 16:09:41.774
34.0, 185.28960340470076, -1294.5626297621056, -1248.956419752445, -1655.1245145401917, -0.01600000075995922, -0.144000006839633, 0.9760000463575125, 0.0, 0.0, 0.0, 0.0, 0.0, 1.6511873817747967E9, 0.0, 2022-04-28 16:09:41.774
34.0, 78.5565985692665, -1461.7492474312894, -1426.4876006990671, -1622.5892548756674, -0.01600000075995922, -0.144000006839633, 0.9760000463575125, 0.0, 0.0, 0.0, 0.0, 0.0, 1.6511873817747967E9, 0.0, 2022-04-28 16:09:41.774
35.0, -13.093389744870365, -1609.1891933344305, -1383.011263714172, -1862.743190630339, -0.01600000075995922, -0.144000006839633, 0.9760000463575125, 0.0, 0.0, 0.0, 0.0, 0.0, 1.6511873817876656E9, 0.0, 2022-04-28 16:09:41.787
35.0, 166.46668692771345, -1630.7609362788498, -1609.9334334256127, -1927.1012590178289, -0.01600000075995922, -0.144000006839633, 0.9760000463575125, 0.0, 0.0, 0.0, 0.0, 0.0, 1.6511873817876656E9, 0.0, 2022-04-28 16:09:41.787
36.0, 95.53574436809868, -1809.3056301134638, -1819.1471768468618, -1859.6895623165183, -0.01600000075995922, -0.144000006839633, 0.9760000463575125, 0.0, 0.0, 0.0, 0.0, 0.0, 1.6511873817884612E9, 0.0, 2022-04-28 16:09:41.788
36.0, 22.439399734139442, -1898.878104002215, -1575.0850456384942, -1922.0037753782235, -0.01600000075995922, -0.144000006839633, 0.9760000463575125, 0.0, 0.0, 0.0, 0.0, 0.0, 1.6511873817884612E9, 0.0, 2022-04-28 16:09:41.788
37.0, 82.80138501897454, -2083.393548116088, -1505.81087875925, -1946.7506933850236, -0.01600000075995922, -0.144000006839633, 0.9760000463575125, 0.0, 0.0, 0.0, 0.0, 0.0, 1.6511873818020253E9, 0.0, 2022-04-28 16:09:41.802
37.0, 145.5531663754955, -2030.868523188401, -1617.9779582303017, -1932.067846158985, -0.01600000075995922, -0.144000006839633, 0.9760000463575125, 0.0, 0.0, 0.0, 0.0, 0.0, 1.6511873818020253E9, 0.0, 2022-04-28 16:09:41.802
38.0, 71.78737964946777, -2194.749069296755, -1782.0193200367503, -1987.702597899828, -0.01600000075995922, -0.144000006839633, 0.9760000463575125, 0.0, 0.0, 0.0, 0.0, 0.0, 1.6511873818176806E9, 0.0, 2022-04-28 16:09:41.817
38.0, -4.543978446163237, -2423.3747634380125, -1963.7728480333462, -1986.148669468239, -0.01600000075995922, -0.144000006839633, 0.9760000463575125, 0.0, 0.0, 0.0, 0.0, 0.0, 1.6511873818176806E9, 0.0, 2022-04-28 16:09:41.817
39.0, 185.009110908024, -2273.9451907584444, -2208.3847445352003, -2131.598988594953, -0.01600000075995922, -0.144000006839633, 0.9760000463575125, 0.0, 0.0, 0.0, 0.0, 0.0, 1.6511873818185403E9, 0.0, 2022-04-28 16:09:41.818
39.0, 78.48554047010839, -2436.4606733829714, -2424.7136476221494, -2082.525891326368, -0.01600000075995922, -0.144000006839633, 0.9760000463575125, 0.0, 0.0, 0.0, 0.0, 0.0, 1.6511873818185403E9, 0.0, 2022-04-28 16:09:41.818
40.0, -15.741238913498819, -2592.999795878306, -2381.4729243344627, -1855.6953491638415, -0.01600000075995922, -0.144000006839633, 0.9760000463575125, 0.0, 0.0, 0.0, 0.0, 0.0, 1.6511873818319423E9, 0.0, 2022-04-28 16:09:41.831
40.0, 174.77300472930074, -2600.262681592256, -2545.1496458952315, -1956.8428134154528, -0.01600000075995922, -0.144000006839633, 0.9760000463575125, 0.0, 0.0, 0.0, 0.0, 0.0, 1.6511873818319423E9, 0.0, 2022-04-28 16:09:41.831
41.0, 95.95087326318026, -2798.913077588659, -2322.1263218875974, -1848.1912399027497, -0.01600000075995922, -0.144000006839633, 0.9760000463575125, 0.0, 0.0, 0.0, 0.0, 0.0, 1.651187381847656E9, 0.0, 2022-04-28 16:09:41.847
41.0, 18.90145437605679, -2887.15788699314, -2100.0174034191296, -1887.0674999421462, -0.01600000075995922, -0.144000006839633, 0.9760000463575125, 0.0, 0.0, 0.0, 0.0, 0.0, 1.651187381847656E9, 0.0, 2022-04-28 16:09:41.847
42.0, 84.47686019912362, -3038.623835198581, -1962.9500700430945, -2004.6424747491255, -0.01600000075995922, -0.144000006839633, 0.9760000463575125, 0.0, 0.0, 0.0, 0.0, 0.0, 1.6511873818483908E9, 0.0, 2022-04-28 16:09:41.848
42.0, 147.27352035511285, -3015.8347548185848, -2121.301174066961, -1901.7279077684507, -0.01600000075995922, -0.144000006839633, 0.9760000463575125, 0.0, 0.0, 0.0, 0.0, 0.0, 1.6511873818483908E9, 0.0, 2022-04-28 16:09:41.848
43.0, 71.68266245070845, -3186.765012343414, -2282.9078610022552, -1966.6563108991832, -0.01600000075995922, -0.144000006839633, 0.9760000463575125, 0.0, 0.0, 0.0, 0.0, 0.0, 1.6511873818620665E9, 0.0, 2022-04-28 16:09:41.862
43.0, -7.401262012310326, -3403.026597231161, -2451.8971104500815, -1980.7145948326215, -0.01600000075995922, -0.144000006839633, 0.9760000463575125, 0.0, 0.0, 0.0, 0.0, 0.0, 1.6511873818620665E9, 0.0, 2022-04-28 16:09:41.862
44.0, 187.59338177740574, -3249.7636270970106, -2681.3998111309484, -2169.084005850833, -0.01600000075995922, -0.144000006839633, 0.9760000463575125, 0.0, 0.0, 0.0, 0.0, 0.0, 1.6511873818776677E9, 0.0, 2022-04-28 16:09:41.877
44.0, 78.99416686408222, -3417.6122070583515, -2911.6336622531526, -2090.424560032785, -0.01600000075995922, -0.144000006839633, 0.9760000463575125, 0.0, 0.0, 0.0, 0.0, 0.0, 1.6511873818776677E9, 0.0, 2022-04-28 16:09:41.877
45.0, -11.227179666981101, -3574.334584651515, -2890.933315998409, -2319.478472718969, -0.01600000075995922, -0.144000006839633, 0.9760000463575125, 0.0, 0.0, 0.0, 0.0, 0.0, 1.651187381878545E9, 0.0, 2022-04-28 16:09:41.878
45.0, 167.57369731459767, -3572.208451526705, -3004.6187948514707, -2517.5791034218855, -0.01600000075995922, -0.144000006839633, 0.9760000463575125, 0.0, 0.0, 0.0, 0.0, 0.0, 1.651187381878545E9, 0.0, 2022-04-28 16:09:41.878
46.0, 97.11398214939982, -3788.941263808869, -2828.5386950876564, -2318.8482995764352, -0.01600000075995922, -0.144000006839633, 0.9760000463575125, 0.0, 0.0, 0.0, 0.0, 0.0, 1.651187381891929E9, 0.0, 2022-04-28 16:09:41.891
46.0, 24.051296615041792, -3877.705919307191, -2608.520380694419, -2358.3678224082105, -0.01600000075995922, -0.144000006839633, 0.9760000463575125, 0.0, 0.0, 0.0, 0.0, 0.0, 1.651187381891929E9, 0.0, 2022-04-28 16:09:41.891
47.0, 80.04881865158677, -4005.834891789127, -2414.5729088922963, -2553.837433492299, -0.01600000075995922, -0.144000006839633, 0.9760000463575125, 0.0, 0.0, 0.0, 0.0, 0.0, 1.6511873819077291E9, 0.0, 2022-04-28 16:09:41.907
47.0, 146.27122716698796, -4000.204472405836, -2622.933955123648, -2380.975517640356, -0.01600000075995922, -0.144000006839633, 0.9760000463575125, 0.0, 0.0, 0.0, 0.0, 0.0, 1.6511873819077291E9, 0.0, 2022-04-28 16:09:41.907
48.0, 70.91224305983633, -4168.442001962569, -2772.666459699627, -2452.5011042929254, -0.01600000075995922, -0.144000006839633, 0.9760000463575125, 0.0, 0.0, 0.0, 0.0, 0.0, 1.6511873819084349E9, 0.0, 2022-04-28 16:09:41.908
48.0, -6.335390524938703, -4380.93376769498, -2938.547852284275, -2486.313539792318, -0.01600000075995922, -0.144000006839633, 0.9760000463575125, 0.0, 0.0, 0.0, 0.0, 0.0, 1.6511873819084349E9, 0.0, 2022-04-28 16:09:41.908
49.0, 184.1938127176836, -4232.801940300036, -3167.6429038699716, -2665.845567215234, -0.01600000075995922, -0.144000006839633, 0.9760000463575125, 0.0, 0.0, 0.0, 0.0, 0.0, 1.6511873819219406E9, 0.0, 2022-04-28 16:09:41.921
49.0, 80.99875324033201, -4402.812182435766, -3408.756123963278, -2583.569638140034, -0.01600000075995922, -0.144000006839633, 0.9760000463575125, 0.0, 0.0, 0.0, 0.0, 0.0, 1.6511873819219406E9, 0.0, 2022-04-28 16:09:41.921
50.0, -12.386548653244972, -4554.698869386222, -3410.440948893316, -2797.039387710858, -0.01600000075995922, -0.144000006839633, 0.9760000463575125, 0.0, 0.0, 0.0, 0.0, 0.0, 1.651187381937704E9, 0.0, 2022-04-28 16:09:41.937
50.0, 168.47127330396324, -4538.8959221234545, -3463.5998868634924, -3035.452400036156, -0.01600000075995922, -0.144000006839633, 0.9760000463575125, 0.0, 0.0, 0.0, 0.0, 0.0, 1.651187381937704E9, 0.0, 2022-04-28 16:09:41.937
51.0, 94.47361278068274, -4773.815867890138, -3329.7170782997273, -2794.2101533943787, -0.01600000075995922, -0.144000006839633, 0.9760000463575125, 0.0, 0.0, 0.0, 0.0, 0.0, 1.651187381938462E9, 0.0, 2022-04-28 16:09:41.938
51.0, 23.957799116149545, -4859.3529897267, -3127.3959704968147, -2790.359926389996, -0.01600000075995922, -0.144000006839633, 0.9760000463575125, 0.0, 0.0, 0.0, 0.0, 0.0, 1.651187381938462E9, 0.0, 2022-04-28 16:09:41.938
52.0, 78.8146516662091, -4968.50196993351, -3350.2509990064427, -2588.575494230725, -0.03200000151991844, -0.144000006839633, 0.9760000463575125, 0.0, 0.0, 0.0, 0.0, 0.0, 1.6511873819520943E9, 0.0, 2022-04-28 16:09:41.952
52.0, 149.09111173357815, -4995.993974507786, -3113.4199643624015, -2362.9959486033767, -0.03200000151991844, -0.144000006839633, 0.9760000463575125, 0.0, 0.0, 0.0, 0.0, 0.0, 1.6511873819520943E9, 0.0, 2022-04-28 16:09:41.952
53.0, 69.76783367339522, -5151.98707160959, -3279.379894846119, -2440.8868449805304, -0.03200000151991844, -0.144000006839633, 0.9760000463575125, 0.0, 0.0, 0.0, 0.0, 0.0, 1.6511873819833686E9, 0.0, 2022-04-28 16:09:41.983
53.0, -7.846310107037425, -5356.019183642231, -3428.2858815318905, -2484.019111169502, -0.03200000151991844, -0.144000006839633, 0.9760000463575125, 0.0, 0.0, 0.0, 0.0, 0.0, 1.6511873819833686E9, 0.0, 2022-04-28 16:09:41.983
54.0, 186.6397072887048, -5212.162061896641, -3631.9907523184083, -2691.5667291604914, -0.03200000151991844, -0.144000006839633, 0.9760000463575125, 0.0, 0.0, 0.0, 0.0, 0.0, 1.651187381984047E9, 0.0, 2022-04-28 16:09:41.984
54.0, 80.42280864715576, -5389.4688488459215, -3416.9951235656627, -2567.9948247745633, -0.03200000151991844, -0.144000006839633, 0.9760000463575125, 0.0, 0.0, 0.0, 0.0, 0.0, 1.651187381984047E9, 0.0, 2022-04-28 16:09:41.984
55.0, -10.942947270348668, -5543.850049066823, -3428.0072589851916, -2743.706544392742, -0.03200000151991844, -0.144000006839633, 0.9760000463575125, 0.0, 0.0, 0.0, 0.0, 0.0, 1.6511873819848096E9, 0.0, 2022-04-28 16:09:41.984
55.0, 174.57479003164917, -5511.535443499684, -3430.303557557985, -2603.8230663500726, -0.03200000151991844, -0.144000006839633, 0.9760000463575125, 0.0, 0.0, 0.0, 0.0, 0.0, 1.6511873819848096E9, 0.0, 2022-04-28 16:09:41.984
56.0, 96.01819146238267, -5273.120561224408, -3341.2808489627205, -2767.0865289657377, -0.03200000151991844, -0.144000006839633, 0.9760000463575125, 0.0, 0.0, 0.0, 0.0, 0.0, 1.6511873819977036E9, 0.0, 2022-04-28 16:09:41.997
56.0, 19.888787964358926, -5354.599891609047, -3155.0787099688314, -2765.225928737782, -0.03200000151991844, -0.144000006839633, 0.9760000463575125, 0.0, 0.0, 0.0, 0.0, 0.0, 1.6511873819977036E9, 0.0, 2022-04-28 16:09:41.997
57.0, 77.74878017883748, -5449.208140788134, -3325.728474996984, -2648.348445272539, -0.03200000151991844, -0.144000006839633, 0.9760000463575125, 0.0, 0.0, 0.0, 0.0, 0.0, 1.6511873819985683E9, 0.0, 2022-04-28 16:09:41.998
57.0, 148.54134644009173, -5489.557921410073, -3124.957555725705, -2847.765520759858, -0.03200000151991844, -0.144000006839633, 0.9760000463575125, 0.0, 0.0, 0.0, 0.0, 0.0, 1.6511873819985683E9, 0.0, 2022-04-28 16:09:41.998
58.0, 67.79316649679095, -5643.063985041343, -3287.2112453533337, -2904.077194392681, -0.03200000151991844, -0.144000006839633, 0.9760000463575125, 0.0, 0.0, 0.0, 0.0, 0.0, 1.6511873820120351E9, 0.0, 2022-04-28 16:09:42.012
58.0, -8.08192380424589, -5845.027932398487, -3435.204696449917, -2974.3947933595628, -0.03200000151991844, -0.144000006839633, 0.9760000463575125, 0.0, 0.0, 0.0, 0.0, 0.0, 1.6511873820120351E9, 0.0, 2022-04-28 16:09:42.012
59.0, 187.18199278227985, -5698.156451288611, -3610.359170974698, -3199.609698741231, -0.03200000151991844, -0.144000006839633, 0.9760000463575125, 0.0, 0.0, 0.0, 0.0, 0.0, 1.6511873820277176E9, 0.0, 2022-04-28 16:09:42.027
59.0, 80.23955354932696, -5876.065362130757, -3421.041695317719, -3047.7604107903317, -0.03200000151991844, -0.144000006839633, 0.9760000463575125, 0.0, 0.0, 0.0, 0.0, 0.0, 1.6511873820277176E9, 0.0, 2022-04-28 16:09:42.027
60.0, -14.664147726260126, -6047.6987208472565, -3442.533030413091, -3229.897278532386, -0.03200000151991844, -0.144000006839633, 0.9760000463575125, 0.0, 0.0, 0.0, 0.0, 0.0, 1.6511873820283918E9, 0.0, 2022-04-28 16:09:42.028
60.0, 167.22214671876281, -5984.720675543416, -3403.8381555215456, -3130.01203051582, -0.03200000151991844, -0.144000006839633, 0.9760000463575125, 0.0, 0.0, 0.0, 0.0, 0.0, 1.6511873820283918E9, 0.0, 2022-04-28 16:09:42.028
61.0, 97.18504024855793, -5765.712134138215, -3357.4054276216775, -3241.2834039474837, -0.03200000151991844, -0.1600000075995922, 0.9760000463575125, 0.0, 0.0, 0.0, 0.0, 0.0, 1.651187382041917E9, 0.0, 2022-04-28 16:09:42.041
61.0, 25.30416310019791, -5870.70047564432, -3178.563411740586, -3201.0663897739723, -0.03200000151991844, -0.1600000075995922, 0.9760000463575125, 0.0, 0.0, 0.0, 0.0, 0.0, 1.651187382041917E9, 0.0, 2022-04-28 16:09:42.041
62.0, 76.24908029660583, -5929.779675244354, -3280.21202258626, -3205.8310223175213, -0.01600000075995922, -0.1600000075995922, 0.9760000463575125, 0.0, 0.0, 0.0, 0.0, 0.0, 1.6511873820576816E9, 0.0, 2022-04-28 16:09:42.057
62.0, 151.9259558999911, -5973.955373520963, -3137.521749626845, -3332.3537077684887, -0.01600000075995922, -0.1600000075995922, 0.9760000463575125, 0.0, 0.0, 0.0, 0.0, 0.0, 1.6511873820576816E9, 0.0, 2022-04-28 16:09:42.057
63.0, 70.85614456050098, -6146.011340932455, -3295.4147159061395, -3391.604942766484, -0.01600000075995922, -0.1600000075995922, 0.9760000463575125, 0.0, 0.0, 0.0, 0.0, 0.0, 1.6511873820584245E9, 0.0, 2022-04-28 16:09:42.058
63.0, -11.193520567379892, -6347.81821249146, -3415.953561428003, -3463.0819107196294, -0.01600000075995922, -0.1600000075995922, 0.9760000463575125, 0.0, 0.0, 0.0, 0.0, 0.0, 1.6511873820584245E9, 0.0, 2022-04-28 16:09:42.058
64.0, 187.62704087700695, -6168.50683916593, -3602.866281413473, -3228.9940926930867, -0.01600000075995922, -0.1600000075995922, 0.9760000463575125, 0.0, 0.0, 0.0, 0.0, 0.0, 1.6511873820719552E9, 0.0, 2022-04-28 16:09:42.071
64.0, 81.05485173966736, -6367.235773061402, -3413.406689558178, -3049.405966770835, -0.01600000075995922, -0.1600000075995922, 0.9760000463575125, 0.0, 0.0, 0.0, 0.0, 0.0, 1.6511873820719552E9, 0.0, 2022-04-28 16:09:42.071
65.0, -15.142854920588434, -6553.637996702921, -3455.695608307142, -3205.845981917344, -0.01600000075995922, -0.1600000075995922, 0.9760000463575125, 0.0, 0.0, 0.0, 0.0, 0.0, 1.6511873820876465E9, 0.0, 2022-04-28 16:09:42.087
65.0, 169.67926098965108, -6454.375442028977, -3361.912007068284, -3200.8606952764094, -0.01600000075995922, -0.1600000075995922, 0.9760000463575125, 0.0, 0.0, 0.0, 0.0, 0.0, 1.6511873820876465E9, 0.0, 2022-04-28 16:09:42.087
66.0, 102.34984208736569, -6258.075573154725, -3370.5287365661934, -3224.3678364478983, -0.01600000075995922, -0.1600000075995922, 0.9760000463575125, 0.0, 0.0, 0.0, 0.0, 0.0, 1.6511873820884216E9, 0.0, 2022-04-28 16:09:42.088
66.0, 22.645094231702387, -6372.267808451783, -3192.412261276506, -3198.669113902375, -0.01600000075995922, -0.1600000075995922, 0.9760000463575125, 0.0, 0.0, 0.0, 0.0, 0.0, 1.6511873820884216E9, 0.0, 2022-04-28 16:09:42.088
67.0, 73.73586752638221, -6399.419482130092, -3244.5819957084022, -3247.8338387198746, -0.01600000075995922, -0.1600000075995922, 0.9760000463575125, 0.0, 0.0, 0.0, 0.0, 0.0, 1.65118738211838E9, 0.0, 2022-04-28 16:09:42.118
67.0, 152.35978429485112, -6466.614264633972, -3144.5976403430104, -3303.956647404935, -0.01600000075995922, -0.1600000075995922, 0.9760000463575125, 0.0, 0.0, 0.0, 0.0, 0.0, 1.65118738211838E9, 0.0, 2022-04-28 16:09:42.118
68.0, 70.216621668078, -6634.870493690483, -3309.5590175385587, -3366.121264468413, -0.01600000075995922, -0.1600000075995922, 0.9760000463575125, 0.0, 0.0, 0.0, 0.0, 0.0, 1.651187382119078E9, 0.0, 2022-04-28 16:09:42.119
68.0, -11.208480167202652, -6833.958457981702, -3422.4385479511693, -3443.331499053631, -0.01600000075995922, -0.1600000075995922, 0.9760000463575125, 0.0, 0.0, 0.0, 0.0, 0.0, 1.651187382119078E9, 0.0, 2022-04-28 16:09:42.119
69.0, 193.35656760912389, -6657.2949338248, -3585.670221417211, -3258.565481642727, -0.01600000075995922, -0.1600000075995922, 0.9760000463575125, 0.0, 0.0, 0.0, 0.0, 0.0, 1.651187382119836E9, 0.0, 2022-04-28 16:09:42.119
69.0, 78.9268486648798, -6852.661697660107, -3419.3269511880353, -3037.7524385089055, -0.01600000075995922, -0.1600000075995922, 0.9760000463575125, 0.0, 0.0, 0.0, 0.0, 0.0, 1.651187382119836E9, 0.0, 2022-04-28 16:09:42.119
70.0, -14.353736029937863, -7049.483282578178, -3477.3832881501876, -3167.6204644702375, -0.01600000075995922, -0.1600000075995922, 0.9760000463575125, 0.0, 0.0, 0.0, 0.0, 0.0, 1.651187382131945E9, 0.0, 2022-04-28 16:09:42.131
70.0, 169.70170038938522, -6935.9604893731885, -3334.158209497109, -3238.953446275089, -0.01600000075995922, -0.1600000075995922, 0.9760000463575125, 0.0, 0.0, 0.0, 0.0, 0.0, 1.651187382131945E9, 0.0, 2022-04-28 16:09:42.131
71.0, 101.40364739857614, -6753.045722440351, -3382.956424118951, -3181.471183956135, -0.01600000075995922, -0.1600000075995922, 0.9760000463575125, 0.0, 0.0, 0.0, 0.0, 0.0, 1.6511873821476803E9, 0.0, 2022-04-28 16:09:42.147
71.0, 24.630981108173728, -6869.552955809981, -3220.670945341699, -3147.559641107917, -0.01600000075995922, -0.1600000075995922, 0.9760000463575125, 0.0, 0.0, 0.0, 0.0, 0.0, 1.6511873821476803E9, 0.0, 2022-04-28 16:09:42.147
72.0, 77.73382057901472, -6871.400466388091, -3209.234331277199, -3278.224265759811, -0.01600000075995922, -0.1600000075995922, 0.9760000463575125, 0.0, 0.0, 0.0, 0.0, 0.0, 1.6511873821485083E9, 0.0, 2022-04-28 16:09:42.148
72.0, 154.19981507305056, -6962.893378904089, -3155.28814436635, -3300.953507740516, -0.01600000075995922, -0.1600000075995922, 0.9760000463575125, 0.0, 0.0, 0.0, 0.0, 0.0, 1.6511873821485083E9, 0.0, 2022-04-28 16:09:42.148
73.0, 72.81585213728249, -7133.733878829982, -3322.7402949323878, -3355.0773398992606, -0.01600000075995922, -0.1600000075995922, 0.9760000463575125, 0.0, 0.0, 0.0, 0.0, 0.0, 1.6511873821947052E9, 0.0, 2022-04-28 16:09:42.194
73.0, -10.254805678501725, -7320.259519170038, -3437.396277823951, -3442.089852268342, -0.01600000075995922, -0.1600000075995922, 0.9760000463575125, 0.0, 0.0, 0.0, 0.0, 0.0, 1.6511873821947052E9, 0.0, 2022-04-28 16:09:42.194
74.0, 188.83876846265048, -7150.604567530099, -3577.866920159664, -3245.8236424936913, -0.01600000075995922, -0.1600000075995922, 0.9760000463575125, 0.0, 0.0, 0.0, 0.0, 0.0, 1.6511873821954565E9, 0.0, 2022-04-28 16:09:42.195
74.0, 84.76857239566743, -7347.91233944241, -3429.3330535194837, -3021.8541237972677, -0.01600000075995922, -0.1600000075995922, 0.9760000463575125, 0.0, 0.0, 0.0, 0.0, 0.0, 1.6511873821954565E9, 0.0, 2022-04-28 16:09:42.195
75.0, -16.807110400870442, -7541.1473603029735, -3508.998532425612, -3113.979079405777, -0.01600000075995922, -0.1600000075995922, 0.9760000463575125, 0.0, 0.0, 0.0, 0.0, 0.0, 1.651187382196194E9, 0.0, 2022-04-28 16:09:42.196
75.0, 169.9709731861949, -7415.963559036143, -3297.580117980484, -3267.511322336737, -0.01600000075995922, -0.1600000075995922, 0.9760000463575125, 0.0, 0.0, 0.0, 0.0, 0.0, 1.651187382196194E9, 0.0, 2022-04-28 16:09:42.196
76.0, 100.06850311439484, -7253.109615465626, -3399.948659567628, -3181.916232050862, -0.01600000075995922, -0.1600000075995922, 0.9760000463575125, 0.0, 0.0, 0.0, 0.0, 0.0, 1.6511873821969233E9, 0.0, 2022-04-28 16:09:42.196
76.0, 25.158307001926005, -7361.77801852813, -3253.965404697228, -3124.29372348357, -0.01600000075995922, -0.1600000075995922, 0.9760000463575125, 0.0, 0.0, 0.0, 0.0, 0.0, 1.6511873821969233E9, 0.0, 2022-04-28 16:09:42.196
77.0, 75.51232000533491, -7352.342250939924, -3188.4760165731423, -3329.516993652098, -0.01600000075995922, -0.1600000075995922, 0.9760000463575125, 0.0, 0.0, 0.0, 0.0, 0.0, 1.6511873822076228E9, 0.0, 2022-04-28 16:09:42.207
77.0, 149.00509403459728, -7464.8160022073425, -3152.2045968528837, -3287.615154548548, -0.01600000075995922, -0.1600000075995922, 0.9760000463575125, 0.0, 0.0, 0.0, 0.0, 0.0, 1.6511873822076228E9, 0.0, 2022-04-28 16:09:42.207
78.0, 74.1472565215081, -7626.303012344055, -3338.659179093782, -3334.6743156909943, -0.01600000075995922, -0.1600000075995922, 0.9760000463575125, 0.0, 0.0, 0.0, 0.0, 0.0, 1.6511873822083635E9, 0.0, 2022-04-28 16:09:42.208
78.0, -9.349749889224768, -7806.930830453988, -3438.6921531585976, -3445.2407179810107, -0.01600000075995922, -0.1600000075995922, 0.9760000463575125, 0.0, 0.0, 0.0, 0.0, 0.0, 1.6511873822083635E9, 0.0, 2022-04-28 16:09:42.208
79.0, 189.32121555693448, -7638.8989953948185, -3558.4325300399214, -3282.2932769116014, -0.01600000075995922, -0.1600000075995922, 0.9760000463575125, 0.0, 0.0, 0.0, 0.0, 0.0, 1.6511873822219613E9, 0.0, 2022-04-28 16:09:42.221
79.0, 78.54163896944374, -7839.022911973763, -3428.7215798767284, -3501.223280417733, -0.01600000075995922, -0.1600000075995922, 0.9760000463575125, 0.0, 0.0, 0.0, 0.0, 0.0, 1.6511873822219613E9, 0.0, 2022-04-28 16:09:42.221
80.0, -13.336483241990209, -8033.608036718331, -3529.7867663293146, -3590.793884356506, -0.01600000075995922, -0.1600000075995922, 0.9760000463575125, 0.0, 0.0, 0.0, 0.0, 0.0, 1.651187382253347E9, 0.0, 2022-04-28 16:09:42.253
80.0, 164.41722175199538, -7898.311545971315, -3755.0895593599416, -3802.3693745997734, -0.01600000075995922, -0.1600000075995922, 0.9760000463575125, 0.0, 0.0, 0.0, 0.0, 0.0, 1.651187382253347E9, 0.0, 2022-04-28 16:09:42.253
81.0, 97.26357814762741, -7750.637856320944, -3897.9125987677835, -3655.787735736463, -0.01600000075995922, -0.1600000075995922, 0.9760000463575125, 0.0, 0.0, 0.0, 0.0, 0.0, 1.651187382254068E9, 0.0, 2022-04-28 16:09:42.254
81.0, 22.60021543223411, -7865.780026206747, -3780.8799094543792, -3558.305373441428, -0.01600000075995922, -0.1600000075995922, 0.9760000463575125, 0.0, 0.0, 0.0, 0.0, 0.0, 1.651187382254068E9, 0.0, 2022-04-28 16:09:42.254
82.0, 75.30288560781628, -7826.638233270496, -3637.0770162581466, -3371.185089008417, -0.01600000075995922, -0.1600000075995922, 0.9760000463575125, 0.0, 0.0, 0.0, 0.0, 0.0, 1.6511873822547848E9, 0.0, 2022-04-28 16:09:42.254
82.0, 156.20440144930035, -7965.990645519458, -3650.735130896326, -3275.4511299426667, -0.01600000075995922, -0.1600000075995922, 0.9760000463575125, 0.0, 0.0, 0.0, 0.0, 0.0, 1.6511873822547848E9, 0.0, 2022-04-28 16:09:42.254
83.0, 71.073058757931, -8115.17338480195, -3833.0122448867187, -3326.2913299403153, -0.01600000075995922, -0.1600000075995922, 0.9760000463575125, 0.0, 0.0, 0.0, 0.0, 0.0, 1.6511873822677343E9, 0.0, 2022-04-28 16:09:42.267
83.0, -11.208480167202652, -8290.135254479013, -3931.8634105655365, -3447.8118992005475, -0.01600000075995922, -0.1600000075995922, 0.9760000463575125, 0.0, 0.0, 0.0, 0.0, 0.0, 1.6511873822677343E9, 0.0, 2022-04-28 16:09:42.267
84.0, 191.0116503369063, -8127.215862659272, -4037.9381930087693, -3287.1383173041977, -0.01600000075995922, -0.1600000075995922, 0.9760000463575125, 0.0, 0.0, 0.0, 0.0, 0.0, 1.651187382268418E9, 0.0, 2022-04-28 16:09:42.268
84.0, 79.84686405397952, -8331.947335983627, -3945.413068105001, -3498.797955296468, -0.01600000075995922, -0.1600000075995922, 0.9760000463575125, 0.0, 0.0, 0.0, 0.0, 0.0, 1.651187382268418E9, 0.0, 2022-04-28 16:09:42.268
85.0, -18.53494418039918, -8529.67771659093, -4046.1753226611763, -3570.6115142456256, -0.01600000075995922, -0.1600000075995922, 0.9760000463575125, 0.0, 0.0, 0.0, 0.0, 0.0, 1.6511873822819223E9, 0.0, 2022-04-28 16:09:42.281
85.0, 168.42639450449497, -8368.388921151869, -4199.3429253464565, -3376.0544387507252, -0.01600000075995922, -0.1600000075995922, 0.9760000463575125, 0.0, 0.0, 0.0, 0.0, 0.0, 1.6511873822819223E9, 0.0, 2022-04-28 16:09:42.281
86.0, 98.22099253628403, -8242.724542740732, -4403.522763427347, -3158.122988532763, -0.01600000075995922, -0.1600000075995922, 0.9760000463575125, 0.0, 0.0, 0.0, 0.0, 0.0, 1.6511873822976558E9, 0.0, 2022-04-28 16:09:42.297
86.0, 22.798430129885674, -8360.615539093968, -4303.745972509496, -3034.4837659476325, -0.01600000075995922, -0.1600000075995922, 0.9760000463575125, 0.0, 0.0, 0.0, 0.0, 0.0, 1.6511873822976558E9, 0.0, 2022-04-28 16:09:42.297
87.0, 71.8098190492019, -8297.164396445733, -4092.6435796106234, -2929.56274264073, -0.01600000075995922, -0.1600000075995922, 0.9760000463575125, 0.0, 0.0, 0.0, 0.0, 0.0, 1.6511873822984433E9, 0.0, 2022-04-28 16:09:42.298
87.0, 156.20066154934466, -8468.152622419875, -4150.952359819785, -2777.4759710426442, -0.01600000075995922, -0.1600000075995922, 0.9760000463575125, 0.0, 0.0, 0.0, 0.0, 0.0, 1.6511873822984433E9, 0.0, 2022-04-28 16:09:42.298
88.0, 72.22494794428349, -8611.740471368656, -4330.162755846512, -2827.4784334502183, -0.01600000075995922, -0.1600000075995922, 0.9760000463575125, 0.0, 0.0, 0.0, 0.0, 0.0, 1.6511873823283305E9, 0.0, 2022-04-28 16:09:42.328
88.0, -12.659561350010335, -8783.26537298644, -4420.520608725958, -2958.7414420950226, -0.01600000075995922, -0.1600000075995922, 0.9760000463575125, 0.0, 0.0, 0.0, 0.0, 0.0, 1.6511873823283305E9, 0.0, 2022-04-28 16:09:42.328
89.0, 187.67191967647523, -8619.130513681099, -4511.082286152989, -2832.6245357892476, -0.01600000075995922, -0.1600000075995922, 0.9760000463575125, 0.0, 0.0, 0.0, 0.0, 0.0, 1.6511873823290217E9, 0.0, 2022-04-28 16:09:42.329
89.0, 83.36237001232803, -8832.953683797736, -4420.6664648242295, -3011.9938775640912, -0.01600000075995922, -0.1600000075995922, 0.9760000463575125, 0.0, 0.0, 0.0, 0.0, 0.0, 1.6511873823290217E9, 0.0, 2022-04-28 16:09:42.329
90.0, -13.527218139730394, -9022.96117099654, -4555.319692778867, -3059.6925615989603, -0.01600000075995922, -0.1600000075995922, 0.9760000463575125, 0.0, 0.0, 0.0, 0.0, 0.0, 1.65118738232976E9, 0.0, 2022-04-28 16:09:42.329
90.0, 167.05385122075677, -8856.028866524342, -4663.758091994096, -2913.5036122309975, -0.01600000075995922, -0.1600000075995922, 0.9760000463575125, 0.0, 0.0, 0.0, 0.0, 0.0, 1.65118738232976E9, 0.0, 2022-04-28 16:09:42.329
91.0, 100.65940730739385, -8736.48670434067, -4905.9240939249285, -3126.403027058579, -0.01600000075995922, -0.144000006839633, 0.9760000463575125, 0.0, 0.0, 0.0, 0.0, 0.0, 1.651187382342016E9, 0.0, 2022-04-28 16:09:42.342
91.0, 24.94513270445168, -8861.161879213527, -4801.9735746565275, -3016.650053008925, -0.01600000075995922, -0.144000006839633, 0.9760000463575125, 0.0, 0.0, 0.0, 0.0, 0.0, 1.651187382342016E9, 0.0, 2022-04-28 16:09:42.342
92.0, 72.75227383803576, -8771.3257423779, -5036.411073328927, -2997.088506290689, -0.01600000075995922, -0.144000006839633, 0.9760000463575125, 0.0, 0.0, 0.0, 0.0, 0.0, 1.651187382357695E9, 0.0, 2022-04-28 16:09:42.357
92.0, 152.61035759188235, -8956.521848283708, -5149.3784913904965, -3236.2120996075682, -0.01600000075995922, -0.144000006839633, 0.9760000463575125, 0.0, 0.0, 0.0, 0.0, 0.0, 1.651187382357695E9, 0.0, 2022-04-28 16:09:42.357
93.0, 75.44874170608819, -9109.22009352455, -5326.625439940486, -3301.3611568356864, -0.01600000075995922, -0.144000006839633, 0.9760000463575125, 0.0, 0.0, 0.0, 0.0, 0.0, 1.6511873823584116E9, 0.0, 2022-04-28 16:09:42.358
93.0, -12.89891494717449, -9271.847773147747, -5402.966147786006, -3434.6511912564747, -0.01600000075995922, -0.144000006839633, 0.9760000463575125, 0.0, 0.0, 0.0, 0.0, 0.0, 1.6511873823584116E9, 0.0, 2022-04-28 16:09:42.358
94.0, 191.26222363393754, -9100.928735322785, -5485.591757507063, -3319.89236111613, -0.01600000075995922, -0.144000006839633, 0.9760000463575125, 0.0, 0.0, 0.0, 0.0, 0.0, 1.6511873823720071E9, 0.0, 2022-04-28 16:09:42.372
94.0, 78.51171976979822, -9320.305656873621, -5420.607255876996, -3488.775023415219, -0.01600000075995922, -0.144000006839633, 0.9760000463575125, 0.0, 0.0, 0.0, 0.0, 0.0, 1.6511873823720071E9, 0.0, 2022-04-28 16:09:42.372
95.0, -13.089649844914675, -9526.970658475067, -5547.616128322203, -3514.3596790120937, -0.01600000075995922, -0.144000006839633, 0.9760000463575125, 0.0, 0.0, 0.0, 0.0, 0.0, 1.651187382403415E9, 0.0, 2022-04-28 16:09:42.403
95.0, 166.8556365231052, -9331.701132038608, -5611.5684175645, -3466.6385555774905, -0.01600000075995922, -0.144000006839633, 0.9760000463575125, 0.0, 0.0, 0.0, 0.0, 0.0, 1.651187382403415E9, 0.0, 2022-04-28 16:09:42.403
96.0, 101.46348579786718, -9238.22981244605, -5397.827525246888, -3595.9736457951367, -0.01600000075995922, -0.144000006839633, 0.9760000463575125, 0.0, 0.0, 0.0, 0.0, 0.0, 1.6511873824041908E9, 0.0, 2022-04-28 16:09:42.404
96.0, 25.80156979430467, -9361.498784935568, -5311.903323764913, -3472.723372805398, -0.01600000075995922, -0.144000006839633, 0.9760000463575125, 0.0, 0.0, 0.0, 0.0, 0.0, 1.6511873824041908E9, 0.0, 2022-04-28 16:09:42.404
97.0, 71.73502105008811, -9240.064233374316, -5491.338113788981, -3533.0217797909863, -0.01600000075995922, -0.144000006839633, 0.9760000463575125, 0.0, 0.0, 0.0, 0.0, 0.0, 1.6511873824048555E9, 0.0, 2022-04-28 16:09:42.404
97.0, 154.54388586897403, -9450.706618578639, -5645.006863068324, -3726.5073739485815, -0.01600000075995922, -0.144000006839633, 0.9760000463575125, 0.0, 0.0, 0.0, 0.0, 0.0, 1.6511873824048555E9, 0.0, 2022-04-28 16:09:42.404
98.0, 75.0710118105635, -9602.439969630912, -5821.124361831695, -3773.042949097231, -0.01600000075995922, -0.144000006839633, 0.9760000463575125, 0.0, 0.0, 0.0, 0.0, 0.0, 1.6511873824176354E9, 0.0, 2022-04-28 16:09:42.417
98.0, -11.29823776613921, -9760.299276810605, -5904.716735691298, -3937.3030950510874, -0.01600000075995922, -0.144000006839633, 0.9760000463575125, 0.0, 0.0, 0.0, 0.0, 0.0, 1.6511873824176354E9, 0.0, 2022-04-28 16:09:42.417
99.0, 188.19176577031612, -9586.459377120249, -5948.267870675307, -3844.5460963500664, -0.01600000075995922, -0.144000006839633, 0.9760000463575125, 0.0, 0.0, 0.0, 0.0, 0.0, 1.651187382418496E9, 0.0, 2022-04-28 16:09:42.418
99.0, 79.5551518574357, -9804.946202481631, -5920.211141207721, -3971.9644878404215, -0.01600000075995922, -0.144000006839633, 0.9760000463575125, 0.0, 0.0, 0.0, 0.0, 0.0, 1.651187382418496E9, 0.0, 2022-04-28 16:09:42.418
100.0, -15.976852610707283, -10020.81509787403, -6059.864615403116, -3992.410520898178, -0.01600000075995922, -0.144000006839633, 0.9760000463575125, 0.0, 0.0, 0.0, 0.0, 0.0, 1.6511873824327471E9, 0.0, 2022-04-28 16:09:42.432
100.0, 170.68155417777598, -9813.42455568118, -6054.675504214596, -4009.526173045393, -0.01600000075995922, -0.144000006839633, 0.9760000463575125, 0.0, 0.0, 0.0, 0.0, 0.0, 1.6511873824327471E9, 0.0, 2022-04-28 16:09:42.432
0.0, 27.607941472902894, -682.2811686163768, -2696.709091599565, 3407.40041022934, -0.01600000075995922, -0.144000006839633, 0.9760000463575125, 0.0, 0.0, 0.0, 0.0, 0.0, 1.65118738243343E9, 0.0, 2022-04-28 16:09:42.433
1.0, -46.74126964621246, -804.7872015149333, -2612.886713892687, 3553.3032572506927, -0.01600000075995922, -0.144000006839633, 0.9760000463575125, 0.0, 0.0, 0.0, 0.0, 0.0, 1.651187382446946E9, 0.0, 2022-04-28 16:09:42.446
1.0, -4.4093420477584, -662.2446546037681, -2731.8809807328507, 3398.572376383934, -0.01600000075995922, -0.144000006839633, 0.9760000463575125, 0.0, 0.0, 0.0, 0.0, 0.0, 1.651187382446946E9, 0.0, 2022-04-28 16:09:42.446
2.0, 80.42280864715576, -887.4502102355473, -2925.9406495336443, 3257.8343312013894, -0.03200000151991844, -0.144000006839633, 0.9760000463575125, 0.0, 0.0, 0.0, 0.0, 0.0, 1.651187382462646E9, 0.0, 2022-04-28 16:09:42.462
2.0, -0.9948133882135153, -1035.3127648336813, -3106.115939748939, 3216.399979592301, -0.03200000151991844, -0.144000006839633, 0.9760000463575125, 0.0, 0.0, 0.0, 0.0, 0.0, 1.651187382462646E9, 0.0, 2022-04-28 16:09:42.462
3.0, -88.96100024599582, -1193.2842690120451, -3178.383896542713, 3027.3068979326636, -0.03200000151991844, -0.144000006839633, 0.9760000463575125, 0.0, 0.0, 0.0, 0.0, 0.0, 1.6511873824634087E9, 0.0, 2022-04-28 16:09:42.463
3.0, 116.06031532492489, -1015.2033227719367, -3209.0136771798134, 3102.6883214395493, -0.03200000151991844, -0.144000006839633, 0.9760000463575125, 0.0, 0.0, 0.0, 0.0, 0.0, 1.6511873824634087E9, 0.0, 2022-04-28 16:09:42.463
4.0, 8.586810298264027, -1236.655888798181, -3189.8018111074343, 3018.338617838919, -0.03200000151991844, -0.144000006839633, 0.9760000463575125, 0.0, 0.0, 0.0, 0.0, 0.0, 1.6511873824769585E9, 0.0, 2022-04-28 16:09:42.476
4.0, -89.6715812375769, -1457.0725025366992, -3351.2776015442796, 3027.3349471823312, -0.03200000151991844, -0.144000006839633, 0.9760000463575125, 0.0, 0.0, 0.0, 0.0, 0.0, 1.6511873824769585E9, 0.0, 2022-04-28 16:09:42.476
5.0, 93.05619069747627, -1227.8858234020881, -3296.261803246103, 2957.6101223584265, -0.03200000151991844, -0.144000006839633, 0.9760000463575125, 0.0, 0.0, 0.0, 0.0, 0.0, 1.6511873824926524E9, 0.0, 2022-04-28 16:09:42.492
5.0, 24.051296615041792, -1170.7775510787033, -3198.3979711555876, 2915.0594106125645, -0.03200000151991844, -0.144000006839633, 0.9760000463575125, 0.0, 0.0, 0.0, 0.0, 0.0, 1.6511873824926524E9, 0.0, 2022-04-28 16:09:42.492
6.0, -46.39719885028899, -1303.8675008518621, -3132.7926461328752, 3094.9168093316257, -0.03200000151991844, -0.144000006839633, 0.9760000463575125, 0.0, 0.0, 0.0, 0.0, 0.0, 1.6511873824934397E9, 0.0, 2022-04-28 16:09:42.493
6.0, -5.149842238985002, -1134.865161754191, -3189.8953086063266, 3338.4684441960417, -0.03200000151991844, -0.144000006839633, 0.9760000463575125, 0.0, 0.0, 0.0, 0.0, 0.0, 1.6511873824934397E9, 0.0, 2022-04-28 16:09:42.493
7.0, 82.6704885205254, -897.6676169144921, -3419.910375581123, 3274.420787504874, -0.03200000151991844, -0.144000006839633, 0.9760000463575125, 0.0, 0.0, 0.0, 0.0, 0.0, 1.6511873825069826E9, 0.0, 2022-04-28 16:09:42.506
7.0, -2.333697572350502, -1042.9945193426684, -3601.2712140823714, 3195.329383241944, -0.03200000151991844, -0.144000006839633, 0.9760000463575125, 0.0, 0.0, 0.0, 0.0, 0.0, 1.6511873825069826E9, 0.0, 2022-04-28 16:09:42.506
8.0, -87.34910336509347, -1184.6712794140913, -3682.4139534709975, 3046.8703146008775, -0.03200000151991844, -0.144000006839633, 0.9760000463575125, 0.0, 0.0, 0.0, 0.0, 0.0, 1.6511873825227418E9, 0.0, 2022-04-28 16:09:42.522
8.0, 112.85148116294295, -1007.4280707640573, -3685.0094440402463, 3102.030099047348, -0.03200000151991844, -0.144000006839633, 0.9760000463575125, 0.0, 0.0, 0.0, 0.0, 0.0, 1.6511873825227418E9, 0.0, 2022-04-28 16:09:42.522
9.0, 5.583670633845031, -1239.767485561315, -3685.108551389072, 3023.2678059805185, -0.03200000151991844, -0.144000006839633, 0.9760000463575125, 0.0, 0.0, 0.0, 0.0, 0.0, 1.651187382523508E9, 0.0, 2022-04-28 16:09:42.523
9.0, -92.98139269836247, -1461.9642916787416, -3866.6788242878392, 3052.844804780092, -0.03200000151991844, -0.144000006839633, 0.9760000463575125, 0.0, 0.0, 0.0, 0.0, 0.0, 1.651187382523508E9, 0.0, 2022-04-28 16:09:42.523
10.0, 88.20554045494646, -1222.5602058651857, -3740.844280428719, 2883.4479062370956, -0.03200000151991844, -0.144000006839633, 0.9760000463575125, 0.0, 0.0, 0.0, 0.0, 0.0, 1.6511873825369225E9, 0.0, 2022-04-28 16:09:42.536
10.0, 24.14853401388973, -1182.1879858435132, -3701.162071948871, 2959.820403232239, -0.03200000151991844, -0.144000006839633, 0.9760000463575125, 0.0, 0.0, 0.0, 0.0, 0.0, 1.6511873825369225E9, 0.0, 2022-04-28 16:09:42.536
11.0, -49.710750211030245, -1314.2120641293004, -3643.4928146321326, 3111.4415572858416, -0.03200000151991844, -0.144000006839633, 0.9760000463575125, 0.0, 0.0, 0.0, 0.0, 0.0, 1.6511873825526931E9, 0.0, 2022-04-28 16:09:42.552
11.0, -5.699607532471418, -1121.8652695082128, -3640.908543762751, 3313.1923303455114, -0.03200000151991844, -0.144000006839633, 0.9760000463575125, 0.0, 0.0, 0.0, 0.0, 0.0, 1.6511873825526931E9, 0.0, 2022-04-28 16:09:42.552
12.0, 82.38999602384865, -897.7274553137831, -3431.102026198525, 3295.575531604234, -0.03200000151991844, -0.144000006839633, 0.9760000463575125, 0.0, 0.0, 0.0, 0.0, 0.0, 1.6511873825534644E9, 0.0, 2022-04-28 16:09:42.553
12.0, -1.323924584314227, -1039.7370664812624, -3617.317254842259, 3228.736039596144, -0.03200000151991844, -0.144000006839633, 0.9760000463575125, 0.0, 0.0, 0.0, 0.0, 0.0, 1.6511873825534644E9, 0.0, 2022-04-28 16:09:42.553
13.0, -89.19661394320428, -1184.5927415150218, -3687.8162389569916, 3059.176455405075, -0.03200000151991844, -0.144000006839633, 0.9760000463575125, 0.0, 0.0, 0.0, 0.0, 0.0, 1.6511873825669663E9, 0.0, 2022-04-28 16:09:42.566
13.0, 115.62648693006486, -1005.5656005861238, -3664.230559886433, 3061.6447893758304, -0.03200000151991844, -0.144000006839633, 0.9760000463575125, 0.0, 0.0, 0.0, 0.0, 0.0, 1.6511873825669663E9, 0.0, 2022-04-28 16:09:42.566
14.0, 2.0307656759396195, -1250.3850615355186, -3699.073337823618, 3034.6875904952176, -0.03200000151991844, -0.144000006839633, 0.9760000463575125, 0.0, 0.0, 0.0, 0.0, 0.0, 1.6511873825827017E9, 0.0, 2022-04-28 16:09:42.582
14.0, -92.65976130217314, -1475.4017522195354, -3885.699955462478, 3069.6051664315164, -0.03200000151991844, -0.144000006839633, 0.9760000463575125, 0.0, 0.0, 0.0, 0.0, 0.0, 1.6511873825827017E9, 0.0, 2022-04-28 16:09:42.582
15.0, 91.61632921453565, -1701.3478080425411, -3713.8422027486376, 2844.259364551399, -0.03200000151991844, -0.144000006839633, 0.9760000463575125, 0.0, 0.0, 0.0, 0.0, 0.0, 1.6511873825834775E9, 0.0, 2022-04-28 16:09:42.583
15.0, 26.57572908513248, -1669.4838604200631, -3710.4781627384946, 2970.4435890563764, -0.03200000151991844, -0.144000006839633, 0.9760000463575125, 0.0, 0.0, 0.0, 0.0, 0.0, 1.6511873825834775E9, 0.0, 2022-04-28 16:09:42.583
16.0, -47.283555139787495, -1817.9410591111518, -3667.173861151561, 3156.8271131981164, -0.03200000151991844, -0.144000006839633, 0.9760000463575125, 0.0, 0.0, 0.0, 0.0, 0.0, 1.6511873825970256E9, 0.0, 2022-04-28 16:09:42.597
16.0, -10.591396674513817, -1608.4505630931817, -3605.581448781304, 3266.269675551448, -0.03200000151991844, -0.144000006839633, 0.9760000463575125, 0.0, 0.0, 0.0, 0.0, 0.0, 1.6511873825970256E9, 0.0, 2022-04-28 16:09:42.597
17.0, 85.81200448330492, -1393.3558269916102, -3429.8753390130587, 3292.9276824356057, -0.03200000151991844, -0.144000006839633, 0.9760000463575125, 0.0, 0.0, 0.0, 0.0, 0.0, 1.6511873826126423E9, 0.0, 2022-04-28 16:09:42.612
17.0, 0.2056944975629449, -1542.848977970425, -3623.794761565514, 3253.531576302368, -0.03200000151991844, -0.144000006839633, 0.9760000463575125, 0.0, 0.0, 0.0, 0.0, 0.0, 1.6511873826126423E9, 0.0, 2022-04-28 16:09:42.612
18.0, -86.99755276925862, -1677.9023752203211, -3672.6584244365804, 3054.6586562586017, -0.03200000151991844, -0.144000006839633, 0.9760000463575125, 0.0, 0.0, 0.0, 0.0, 0.0, 1.6511873826133783E9, 0.0, 2022-04-28 16:09:42.613
18.0, 117.67221220582724, -1493.1868464588188, -3641.1067584604025, 3050.8383484538645, -0.03200000151991844, -0.144000006839633, 0.9760000463575125, 0.0, 0.0, 0.0, 0.0, 0.0, 1.6511873826133783E9, 0.0, 2022-04-28 16:09:42.613
19.0, 9.783578284084797, -1249.2069930494763, -3695.0043266718276, 3024.7749856626615, -0.03200000151991844, -0.144000006839633, 0.9760000463575125, 0.0, 0.0, 0.0, 0.0, 0.0, 1.651187382626967E9, 0.0, 2022-04-28 16:09:42.626
19.0, -90.52053852751851, -1474.358320131898, -3909.9980854745954, 3100.2143776188605, -0.03200000151991844, -0.144000006839633, 0.9760000463575125, 0.0, 0.0, 0.0, 0.0, 0.0, 1.651187382626967E9, 0.0, 2022-04-28 16:09:42.626
20.0, 89.64166203793138, -1691.1528407633305, -3690.4341689259745, 3292.7145081381314, -0.03200000151991844, -0.144000006839633, 0.9760000463575125, 0.0, 0.0, 0.0, 0.0, 0.0, 1.65118738264269E9, 0.0, 2022-04-28 16:09:42.642
20.0, 26.033443591557443, -1674.3532101623714, -3723.9997710282914, 3466.9078283743, -0.03200000151991844, -0.144000006839633, 0.9760000463575125, 0.0, 0.0, 0.0, 0.0, 0.0, 1.65118738264269E9, 0.0, 2022-04-28 16:09:42.642
21.0, -46.96940354350954, -1822.9712245515548, -3695.299778768327, 3671.1269354047254, -0.03200000151991844, -0.144000006839633, 0.9760000463575125, 0.0, 0.0, 0.0, 0.0, 0.0, 1.651187382643428E9, 0.0, 2022-04-28 16:09:42.643
21.0, -11.948980358429253, -1587.050855546724, -3575.8436342836358, 3680.3626183453016, -0.03200000151991844, -0.144000006839633, 0.9760000463575125, 0.0, 0.0, 0.0, 0.0, 0.0, 1.651187382643428E9, 0.0, 2022-04-28 16:09:42.643
22.0, 86.68714107293636, -1404.3773121610284, -3435.4010411975905, 3810.888866698835, -0.01600000075995922, -0.144000006839633, 0.9760000463575125, 0.0, 0.0, 0.0, 0.0, 0.0, 1.65118738265697E9, 0.0, 2022-04-28 16:09:42.656
22.0, -0.5722046932205558, -1532.6278313915245, -3623.916308314074, 3754.70060976455, -0.01600000075995922, -0.144000006839633, 0.9760000463575125, 0.0, 0.0, 0.0, 0.0, 0.0, 1.65118738265697E9, 0.0, 2022-04-28 16:09:42.656
23.0, -87.53609836287796, -1681.9601666722447, -3675.928966947831, 3558.2623645919375, -0.01600000075995922, -0.144000006839633, 0.9760000463575125, 0.0, 0.0, 0.0, 0.0, 0.0, 1.651187382672713E9, 0.0, 2022-04-28 16:09:42.672
23.0, 114.63541344180703, -1493.8787279506214, -3625.8273971914314, 3513.875361967832, -0.01600000075995922, -0.144000006839633, 0.9760000463575125, 0.0, 0.0, 0.0, 0.0, 0.0, 1.651187382672713E9, 0.0, 2022-04-28 16:09:42.672
24.0, 6.638322421349585, -1251.780044218991, -3705.3769391989335, 3533.859517381061, -0.01600000075995922, -0.144000006839633, 0.9760000463575125, 0.0, 0.0, 0.0, 0.0, 0.0, 1.6511873826735141E9, 0.0, 2022-04-28 16:09:42.673
24.0, -87.49495946336538, -1483.5285548232496, -3923.5757922637276, 3628.256462212652, -0.01600000075995922, -0.144000006839633, 0.9760000463575125, 0.0, 0.0, 0.0, 0.0, 0.0, 1.6511873826735141E9, 0.0, 2022-04-28 16:09:42.673
25.0, 86.14111567940563, -1672.0718711894006, -4136.320001243148, 3716.334846069105, -0.01600000075995922, -0.144000006839633, 0.9760000463575125, 0.0, 0.0, 0.0, 0.0, 0.0, 1.651187382687057E9, 0.0, 2022-04-28 16:09:42.687
25.0, 24.54496340919286, -1681.3393432796001, -4236.201509359758, 3501.1316528688185, -0.01600000075995922, -0.144000006839633, 0.9760000463575125, 0.0, 0.0, 0.0, 0.0, 0.0, 1.651187382687057E9, 0.0, 2022-04-28 16:09:42.687
26.0, -48.70845702290535, -1835.559727802407, -4210.27278296696, 3722.5281203957275, -0.01600000075995922, -0.144000006839633, 0.9760000463575125, 0.0, 0.0, 0.0, 0.0, 0.0, 1.651187382702672E9, 0.0, 2022-04-28 16:09:42.702
26.0, -12.700700249522924, -2064.697788237594, -4026.5127986441366, 3659.020879248157, -0.01600000075995922, -0.144000006839633, 0.9760000463575125, 0.0, 0.0, 0.0, 0.0, 0.0, 1.651187382702672E9, 0.0, 2022-04-28 16:09:42.702
27.0, 85.36321648862213, -1896.5238369801082, -3935.066634877585, 3816.4669274827465, -0.01600000075995922, -0.144000006839633, 0.9760000463575125, 0.0, 0.0, 0.0, 0.0, 0.0, 1.6511873827034822E9, 0.0, 2022-04-28 16:09:42.703
27.0, -1.368803383782506, -2022.9754643319175, -4115.982425284106, 3769.1646728431806, -0.01600000075995922, -0.144000006839633, 0.9760000463575125, 0.0, 0.0, 0.0, 0.0, 0.0, 1.6511873827034822E9, 0.0, 2022-04-28 16:09:42.703
28.0, -91.77714491263032, -2157.987722682301, -4188.0895663797855, 3555.7510217716917, -0.01600000075995922, -0.144000006839633, 0.9760000463575125, 0.0, 0.0, 0.0, 0.0, 0.0, 1.651187382717004E9, 0.0, 2022-04-28 16:09:42.717
28.0, 115.94063852634281, -1979.682382444851, -4097.316584605258, 3509.7072434672154, -0.01600000075995922, -0.144000006839633, 0.9760000463575125, 0.0, 0.0, 0.0, 0.0, 0.0, 1.651187382717004E9, 0.0, 2022-04-28 16:09:42.717
29.0, 6.974913417361677, -1743.2533870460466, -4195.531967291608, 3544.6322992034256, -0.01600000075995922, -0.144000006839633, 0.9760000463575125, 0.0, 0.0, 0.0, 0.0, 0.0, 1.6511873827326264E9, 0.0, 2022-04-28 16:09:42.732
29.0, -87.62585596181452, -1974.583028855268, -3954.2261423505843, 3668.0359080913477, -0.01600000075995922, -0.144000006839633, 0.9760000463575125, 0.0, 0.0, 0.0, 0.0, 0.0, 1.6511873827326264E9, 0.0, 2022-04-28 16:09:42.732
30.0, 90.06801063288003, -2144.927992037032, -4095.0408554822206, 3661.4518142193556, -0.01600000075995922, -0.144000006839633, 0.9760000463575125, 0.0, 0.0, 0.0, 0.0, 0.0, 1.651187382733402E9, 0.0, 2022-04-28 16:09:42.733
30.0, 29.130080754868686, -2184.0922243730165, -4253.391959506087, 3524.5434265914373, -0.01600000075995922, -0.144000006839633, 0.9760000463575125, 0.0, 0.0, 0.0, 0.0, 0.0, 1.651187382733402E9, 0.0, 2022-04-28 16:09:42.733
31.0, -48.70097722299397, -2332.9682918591425, -4243.1221942277625, 3732.6856886753812, -0.01600000075995922, -0.144000006839633, 0.9760000463575125, 0.0, 0.0, 0.0, 0.0, 0.0, 1.6511873827470336E9, 0.0, 2022-04-28 16:09:42.747
31.0, -12.263131954707205, -2533.7317313305102, -4488.087511275429, 3608.5658889459446, -0.01600000075995922, -0.144000006839633, 0.9760000463575125, 0.0, 0.0, 0.0, 0.0, 0.0, 1.6511873827470336E9, 0.0, 2022-04-28 16:09:42.747
32.0, 88.1157828560099, -2387.9298616079614, -4435.670943446457, 3825.1734145795926, -0.01600000075995922, -0.144000006839633, 0.9760000463575125, 0.0, 0.0, 0.0, 0.0, 0.0, 1.6511873827626288E9, 0.0, 2022-04-28 16:09:42.762
32.0, 0.8152981903403997, -2524.763451236766, -4630.248588391114, 3775.9338917629793, -0.01600000075995922, -0.144000006839633, 0.9760000463575125, 0.0, 0.0, 0.0, 0.0, 0.0, 1.6511873827626288E9, 0.0, 2022-04-28 16:09:42.762
33.0, -93.22448619548231, -2657.9169793091714, -4682.167749525979, 3566.383557345718, -0.01600000075995922, -0.144000006839633, 0.9760000463575125, 0.0, 0.0, 0.0, 0.0, 0.0, 1.6511873827633371E9, 0.0, 2022-04-28 16:09:42.763
33.0, 116.15755272377282, -2462.9690842689015, -4561.554106005002, 3459.080217767041, -0.01600000075995922, -0.144000006839633, 0.9760000463575125, 0.0, 0.0, 0.0, 0.0, 0.0, 1.6511873827633371E9, 0.0, 2022-04-28 16:09:42.763
34.0, 0.6357829924672842, -2227.673278556671, -4695.021785673685, 3543.745942913927, -0.01600000075995922, -0.144000006839633, 0.9760000463575125, 0.0, 0.0, 0.0, 0.0, 0.0, 1.651187382776956E9, 0.0, 2022-04-28 16:09:42.776
34.0, -86.21217377856374, -1983.4428518502973, -4466.951466675848, 3667.20939020114, -0.01600000075995922, -0.144000006839633, 0.9760000463575125, 0.0, 0.0, 0.0, 0.0, 0.0, 1.651187382776956E9, 0.0, 2022-04-28 16:09:42.776
35.0, 86.91901487018913, -2140.5672686886974, -4554.955052533187, 3619.9277050113305, -0.01600000075995922, -0.144000006839633, 0.9760000463575125, 0.0, 0.0, 0.0, 0.0, 0.0, 1.6511873828083577E9, 0.0, 2022-04-28 16:09:42.808
35.0, 27.548103073611856, -2188.4566876213066, -4750.506941416301, 3529.577331931796, -0.01600000075995922, -0.144000006839633, 0.9760000463575125, 0.0, 0.0, 0.0, 0.0, 0.0, 1.6511873828083577E9, 0.0, 2022-04-28 16:09:42.808
36.0, -44.69928427040577, -2337.7890229020268, -4756.847941791173, 3772.863433899358, -0.01600000075995922, -0.144000006839633, 0.9760000463575125, 0.0, 0.0, 0.0, 0.0, 0.0, 1.651187382809102E9, 0.0, 2022-04-28 16:09:42.809
36.0, -15.782377813011408, -2521.143228079658, -4948.444886471145, 3553.7165161957964, -0.01600000075995922, -0.144000006839633, 0.9760000463575125, 0.0, 0.0, 0.0, 0.0, 0.0, 1.651187382809102E9, 0.0, 2022-04-28 16:09:42.809
37.0, 85.5614311862737, -2391.9091151608154, -4923.524063116405, 3331.9123995737173, -0.01600000075995922, -0.144000006839633, 0.9760000463575125, 0.0, 0.0, 0.0, 0.0, 0.0, 1.6511873828097973E9, 0.0, 2022-04-28 16:09:42.809
37.0, -1.5894574811682105, -2523.263751354534, -5116.171919683926, 3283.24882135028, -0.01600000075995922, -0.144000006839633, 0.9760000463575125, 0.0, 0.0, 0.0, 0.0, 0.0, 1.6511873828097973E9, 0.0, 2022-04-28 16:09:42.809
38.0, -90.87208912335336, -2647.213385635987, -5175.630719129462, 3087.023750475142, -0.01600000075995922, -0.144000006839633, 0.9760000463575125, 0.0, 0.0, 0.0, 0.0, 0.0, 1.651187382822742E9, 0.0, 2022-04-28 16:09:42.822
38.0, 115.55542883090675, -2461.5591419856064, -5049.470803974196, 2967.7377714384347, -0.01600000075995922, -0.144000006839633, 0.9760000463575125, 0.0, 0.0, 0.0, 0.0, 0.0, 1.651187382822742E9, 0.0, 2022-04-28 16:09:42.822
39.0, 5.108703339472413, -2241.5744866919704, -5195.59804499289, 3060.6911148871295, -0.01600000075995922, -0.144000006839633, 0.9760000463575125, 0.0, 0.0, 0.0, 0.0, 0.0, 1.6511873828234963E9, 0.0, 2022-04-28 16:09:42.823
39.0, -86.80681787151843, -2484.6511542620137, -4980.2284262445755, 3220.29695534613, -0.01600000075995922, -0.144000006839633, 0.9760000463575125, 0.0, 0.0, 0.0, 0.0, 0.0, 1.6511873828234963E9, 0.0, 2022-04-28 16:09:42.823
40.0, 86.46648697555065, -2615.517733511515, -4999.126140720677, 3084.2936235074885, -0.01600000075995922, -0.144000006839633, 0.9760000463575125, 0.0, 0.0, 0.0, 0.0, 0.0, 1.651187382837002E9, 0.0, 2022-04-28 16:09:42.837
40.0, 27.125494378618896, -2680.9622428361326, -4765.3693038402125, 3052.6372403325513, -0.01600000075995922, -0.144000006839633, 0.9760000463575125, 0.0, 0.0, 0.0, 0.0, 0.0, 1.651187382837002E9, 0.0, 2022-04-28 16:09:42.837
41.0, -42.98641009069979, -2837.602342630271, -4796.210388824809, 2841.9125773292035, -0.01600000075995922, -0.144000006839633, 0.9760000463575125, 0.0, 0.0, 0.0, 0.0, 0.0, 1.6511873828527124E9, 0.0, 2022-04-28 16:09:42.852
41.0, -16.635075002908707, -2996.568660196848, -4908.674790342338, 3025.4724770043977, -0.01600000075995922, -0.144000006839633, 0.9760000463575125, 0.0, 0.0, 0.0, 0.0, 0.0, 1.6511873828527124E9, 0.0, 2022-04-28 16:09:42.852
42.0, 84.93312799371779, -2886.542673450429, -4931.488180072047, 2859.621003619395, -0.01600000075995922, -0.144000006839633, 0.9760000463575125, 0.0, 0.0, 0.0, 0.0, 0.0, 1.651187382853524E9, 0.0, 2022-04-28 16:09:42.853
42.0, 2.3897960716858506, -3019.195054928772, -5128.994166682009, 2822.222004062496, -0.01600000075995922, -0.144000006839633, 0.9760000463575125, 0.0, 0.0, 0.0, 0.0, 0.0, 1.651187382853524E9, 0.0, 2022-04-28 16:09:42.853
43.0, -89.42848774045706, -3146.787351767067, -5192.776290476322, 2606.313839720562, -0.01600000075995922, -0.144000006839633, 0.9760000463575125, 0.0, 0.0, 0.0, 0.0, 0.0, 1.6511873828833852E9, 0.0, 2022-04-28 16:09:42.883
43.0, 117.34684090968221, -2948.9410342611372, -5031.8240860332735, 2436.0156252882443, -0.01600000075995922, -0.144000006839633, 0.9760000463575125, 0.0, 0.0, 0.0, 0.0, 0.0, 1.6511873828833852E9, 0.0, 2022-04-28 16:09:42.883
44.0, 5.6135898334905505, -2732.0791954305023, -5195.199745647609, 2584.0427354844287, -0.01600000075995922, -0.144000006839633, 0.9760000463575125, 0.0, 0.0, 0.0, 0.0, 0.0, 1.6511873828842027E9, 0.0, 2022-04-28 16:09:42.884
44.0, -92.03145810961723, -2489.228791807778, -5010.639422734268, 2750.874062657822, -0.01600000075995922, -0.144000006839633, 0.9760000463575125, 0.0, 0.0, 0.0, 0.0, 0.0, 1.6511873828842027E9, 0.0, 2022-04-28 16:09:42.884
45.0, 87.50991906318814, -2600.6142321880907, -4960.844524774235, 2540.6374565986916, -0.01600000075995922, -0.144000006839633, 0.9760000463575125, 0.0, 0.0, 0.0, 0.0, 0.0, 1.6511873828848264E9, 0.0, 2022-04-28 16:09:42.884
45.0, 27.892173869535327, -2684.2234355974942, -4765.410442739725, 2587.210430746898, -0.01600000075995922, -0.144000006839633, 0.9760000463575125, 0.0, 0.0, 0.0, 0.0, 0.0, 1.6511873828848264E9, 0.0, 2022-04-28 16:09:42.884
46.0, -43.51747588440776, -2847.902027108241, -4812.751966328826, 2377.611477630213, -0.01600000075995922, -0.144000006839633, 0.9760000463575125, 0.0, 0.0, 0.0, 0.0, 0.0, 1.651187382896997E9, 0.0, 2022-04-28 16:09:42.896
46.0, -14.432273929007351, -2980.1131003918126, -4877.577522210777, 2492.839665214997, -0.01600000075995922, -0.144000006839633, 0.9760000463575125, 0.0, 0.0, 0.0, 0.0, 0.0, 1.651187382896997E9, 0.0, 2022-04-28 16:09:42.896
47.0, 87.1172295678407, -2891.9169096867554, -4931.263786074705, 2372.1175645953044, -0.01600000075995922, -0.144000006839633, 0.9760000463575125, 0.0, 0.0, 0.0, 0.0, 0.0, 1.651187382912823E9, 0.0, 2022-04-28 16:09:42.912
47.0, 1.4136821832507849, -3023.6268363762647, -5138.86750256503, 2330.657033686526, -0.01600000075995922, -0.144000006839633, 0.9760000463575125, 0.0, 0.0, 0.0, 0.0, 0.0, 1.651187382912823E9, 0.0, 2022-04-28 16:09:42.912
48.0, -91.35453621763736, -3143.335424107965, -5190.113481707871, 2110.6461990932003, -0.01600000075995922, -0.144000006839633, 0.9760000463575125, 0.0, 0.0, 0.0, 0.0, 0.0, 1.6511873829135387E9, 0.0, 2022-04-28 16:09:42.913
48.0, 114.23150424659252, -2941.6781485471874, -5004.047849062365, 1933.2122555454262, -0.01600000075995922, -0.144000006839633, 0.9760000463575125, 0.0, 0.0, 0.0, 0.0, 0.0, 1.6511873829135387E9, 0.0, 2022-04-28 16:09:42.913
49.0, 7.045971516519785, -2726.4693454969674, -5219.16502456367, 2103.641366476193, -0.01600000075995922, -0.144000006839633, 0.9760000463575125, 0.0, 0.0, 0.0, 0.0, 0.0, 1.6511873829269564E9, 0.0, 2022-04-28 16:09:42.926
49.0, -90.7823315244168, -2492.5909618679434, -5018.86346273683, 2299.7635901025496, -0.01600000075995922, -0.144000006839633, 0.9760000463575125, 0.0, 0.0, 0.0, 0.0, 0.0, 1.6511873829269564E9, 0.0, 2022-04-28 16:09:42.926
50.0, 84.08791060373187, -2590.6399190062657, -4935.5441015739925, 2515.5745170456357, -0.01600000075995922, -0.144000006839633, 0.9760000463575125, 0.0, 0.0, 0.0, 0.0, 0.0, 1.651187382942752E9, 0.0, 2022-04-28 16:09:42.942
50.0, 28.52047706209123, -2694.9307691706344, -4791.268111033365, 2594.796817807015, -0.01600000075995922, -0.144000006839633, 0.9760000463575125, 0.0, 0.0, 0.0, 0.0, 0.0, 1.651187382942752E9, 0.0, 2022-04-28 16:09:42.942
51.0, -45.252789463847876, -2857.184458798263, -4837.263270638417, 2411.4856214788742, -0.01600000075995922, -0.1600000075995922, 0.9760000463575125, 0.0, 0.0, 0.0, 0.0, 0.0, 1.6511873829433956E9, 0.0, 2022-04-28 16:09:42.943
51.0, -16.92304729949683, -2970.6586333038285, -4853.900215591304, 2458.7710465686396, -0.01600000075995922, -0.1600000075995922, 0.9760000463575125, 0.0, 0.0, 0.0, 0.0, 0.0, 1.6511873829433956E9, 0.0, 2022-04-28 16:09:42.943
52.0, 87.13218916766346, -2899.396709598135, -4938.047964594327, 2372.171793144662, -0.01600000075995922, -0.1600000075995922, 0.9760000463575125, 0.0, 0.0, 0.0, 0.0, 0.0, 1.6511873829570117E9, 0.0, 2022-04-28 16:09:42.957
52.0, -1.9522277768701315, -3029.9023885019124, -5150.68558642501, 2346.41136224987, -0.01600000075995922, -0.1600000075995922, 0.9760000463575125, 0.0, 0.0, 0.0, 0.0, 0.0, 1.6511873829570117E9, 0.0, 2022-04-28 16:09:42.957
53.0, -89.32377054169774, -3145.818717678543, -5206.198791417293, 2138.6113010118715, -0.01600000075995922, -0.1600000075995922, 0.9760000463575125, 0.0, 0.0, 0.0, 0.0, 0.0, 1.651187382972653E9, 0.0, 2022-04-28 16:09:42.972
53.0, 114.4259790442884, -2936.4535083090886, -4976.828857184853, 2383.544828909915, -0.01600000075995922, -0.1600000075995922, 0.9760000463575125, 0.0, 0.0, 0.0, 0.0, 0.0, 1.651187382972653E9, 0.0, 2022-04-28 16:09:42.972
54.0, 5.377976136282086, -2738.3697071559727, -5209.119653282687, 2621.198641544208, -0.01600000075995922, -0.1600000075995922, 0.9760000463575125, 0.0, 0.0, 0.0, 0.0, 0.0, 1.651187382973351E9, 0.0, 2022-04-28 16:09:42.973
54.0, -90.50931882765144, -2501.955671356991, -5045.708464618772, 2815.8323849882, -0.01600000075995922, -0.1600000075995922, 0.9760000463575125, 0.0, 0.0, 0.0, 0.0, 0.0, 1.651187382973351E9, 0.0, 2022-04-28 16:09:42.973
55.0, 85.84566358290613, -2580.130800130777, -4888.903809226584, 2928.91200004844, -0.01600000075995922, -0.1600000075995922, 0.9760000463575125, 0.0, 0.0, 0.0, 0.0, 0.0, 1.6511873829870064E9, 0.0, 2022-04-28 16:09:42.987
55.0, 31.905086521990597, -2702.5265059806406, -4801.26860351488, 3128.525420283433, -0.01600000075995922, -0.1600000075995922, 0.9760000463575125, 0.0, 0.0, 0.0, 0.0, 0.0, 1.6511873829870064E9, 0.0, 2022-04-28 16:09:42.987
56.0, -40.6489726183936, -2863.931238318328, -4870.047233649995, 2958.771361294668, -0.01600000075995922, -0.1600000075995922, 0.9760000463575125, 0.0, 0.0, 0.0, 0.0, 0.0, 1.651187383018524E9, 0.0, 2022-04-28 16:09:43.018
56.0, -18.243231983855367, -2952.8454898148775, -4817.5988766714, 2894.5572790554725, -0.01600000075995922, -0.1600000075995922, 0.9760000463575125, 0.0, 0.0, 0.0, 0.0, 0.0, 1.651187383018524E9, 0.0, 2022-04-28 16:09:43.018
57.0, 89.09937654435635, -2905.922835020814, -4944.572220067028, 2876.1551013235003, -0.01600000075995922, -0.1600000075995922, 0.9760000463575125, 0.0, 0.0, 0.0, 0.0, 0.0, 1.6511873830192277E9, 0.0, 2022-04-28 16:09:43.019
57.0, 1.4959599822759628, -3030.1080829994753, -5160.770226655528, 2838.483089069836, -0.01600000075995922, -0.1600000075995922, 0.9760000463575125, 0.0, 0.0, 0.0, 0.0, 0.0, 1.6511873830192277E9, 0.0, 2022-04-28 16:09:43.019
58.0, -92.8579759998247, -3138.742826962378, -5205.658375873696, 2642.231838895008, -0.01600000075995922, -0.1600000075995922, 0.9760000463575125, 0.0, 0.0, 0.0, 0.0, 0.0, 1.6511873830198474E9, 0.0, 2022-04-28 16:09:43.019
58.0, 116.9466716144234, -2933.528906543739, -4966.729257354513, 2881.3722617616877, -0.01600000075995922, -0.1600000075995922, 0.9760000463575125, 0.0, 0.0, 0.0, 0.0, 0.0, 1.6511873830198474E9, 0.0, 2022-04-28 16:09:43.019
59.0, 4.749672943726182, -2742.408799108118, -4726.3172685028985, 3097.0392025564797, -0.01600000075995922, -0.1600000075995922, 0.9760000463575125, 0.0, 0.0, 0.0, 0.0, 0.0, 1.6511873830326812E9, 0.0, 2022-04-28 16:09:43.032
59.0, -92.21471320744604, -2506.4585109036416, -4586.186957063153, 3332.576231815852, -0.01600000075995922, -0.1600000075995922, 0.9760000463575125, 0.0, 0.0, 0.0, 0.0, 0.0, 1.6511873830326812E9, 0.0, 2022-04-28 16:09:43.032
60.0, 82.63682942092419, -2567.65075397864, -4364.786749636289, 3388.9066049484536, -0.01600000075995922, -0.1600000075995922, 0.9760000463575125, 0.0, 0.0, 0.0, 0.0, 0.0, 1.651187383033371E9, 0.0, 2022-04-28 16:09:43.033
60.0, 27.77997687086463, -2705.7390800425783, -4317.80799634289, 3617.8184014363214, -0.01600000075995922, -0.1600000075995922, 0.9760000463575125, 0.0, 0.0, 0.0, 0.0, 0.0, 1.651187383033371E9, 0.0, 2022-04-28 16:09:43.033
61.0, -42.76949589326978, -2868.0600878694095, -4395.360431774054, 3460.6191865988076, -0.01600000075995922, -0.1600000075995922, 0.9760000463575125, 0.0, 0.0, 0.0, 0.0, 0.0, 1.6511873830469832E9, 0.0, 2022-04-28 16:09:43.046
61.0, -19.428780269809067, -2942.175555241294, -4295.520062556956, 3343.758532683365, -0.01600000075995922, -0.1600000075995922, 0.9760000463575125, 0.0, 0.0, 0.0, 0.0, 0.0, 1.6511873830469832E9, 0.0, 2022-04-28 16:09:43.046
62.0, 87.5622776625678, -2903.3123848517425, -4449.271089635324, 3375.3868666086346, -0.01600000075995922, -0.1600000075995922, 0.9760000463575125, 0.0, 0.0, 0.0, 0.0, 0.0, 1.6511873830626848E9, 0.0, 2022-04-28 16:09:43.062
62.0, -0.7928587906062603, -3032.7372326683253, -4668.3899580892175, 3332.0788251217455, -0.01600000075995922, -0.1600000075995922, 0.9760000463575125, 0.0, 0.0, 0.0, 0.0, 0.0, 1.6511873830626848E9, 0.0, 2022-04-28 16:09:43.062
63.0, -90.47565972805023, -3147.1052432633005, -4740.19042738853, 3135.558302150108, -0.01600000075995922, -0.1600000075995922, 0.9760000463575125, 0.0, 0.0, 0.0, 0.0, 0.0, 1.6511873830635204E9, 0.0, 2022-04-28 16:09:43.063
63.0, 117.85920720361173, -2934.2843663347885, -4949.078799513634, 3339.371630035341, -0.01600000075995922, -0.1600000075995922, 0.9760000463575125, 0.0, 0.0, 0.0, 0.0, 0.0, 1.6511873830635204E9, 0.0, 2022-04-28 16:09:43.063
64.0, 5.778145431540906, -2740.7632431276143, -4738.642108806875, 3119.4655126407743, -0.01600000075995922, -0.1600000075995922, 0.9760000463575125, 0.0, 0.0, 0.0, 0.0, 0.0, 1.651187383093324E9, 0.0, 2022-04-28 16:09:43.093
64.0, -87.79415145982057, -2513.5605809194967, -4599.89930025069, 3358.0318608642556, -0.01600000075995922, -0.1600000075995922, 0.9760000463575125, 0.0, 0.0, 0.0, 0.0, 0.0, 1.651187383093324E9, 0.0, 2022-04-28 16:09:43.093
65.0, 84.0392919043079, -2548.8390572015196, -4820.358922838699, 3319.6286981692538, -0.01600000075995922, -0.1600000075995922, 0.9760000463575125, 0.0, 0.0, 0.0, 0.0, 0.0, 1.6511873830940316E9, 0.0, 2022-04-28 16:09:43.094
65.0, 31.523616726510227, -2720.5715232668445, -4829.2187458337285, 3153.915601082612, -0.01600000075995922, -0.1600000075995922, 0.9760000463575125, 0.0, 0.0, 0.0, 0.0, 0.0, 1.6511873830940316E9, 0.0, 2022-04-28 16:09:43.094
66.0, -40.32360132224858, -2879.2423887369223, -4900.536768038757, 2997.1801338396035, -0.01600000075995922, -0.1600000075995922, 0.9760000463575125, 0.0, 0.0, 0.0, 0.0, 0.0, 1.6511873830947688E9, 0.0, 2022-04-28 16:09:43.094
66.0, -19.922447063960135, -2930.09193848446, -4770.526625879109, 2823.0017732032575, -0.01600000075995922, -0.1600000075995922, 0.9760000463575125, 0.0, 0.0, 0.0, 0.0, 0.0, 1.6511873830947688E9, 0.0, 2022-04-28 16:09:43.094
67.0, 95.10939577315003, -2917.1126156882383, -4949.574336257763, 2901.233000476379, -0.01600000075995922, -0.1600000075995922, 0.9760000463575125, 0.0, 0.0, 0.0, 0.0, 0.0, 1.6511873831070256E9, 0.0, 2022-04-28 16:09:43.107
67.0, -0.8601769898086786, -3038.2012265035883, -5177.036921512801, 2862.652192533482, -0.01600000075995922, -0.1600000075995922, 0.9760000463575125, 0.0, 0.0, 0.0, 0.0, 0.0, 1.6511873831070256E9, 0.0, 2022-04-28 16:09:43.107
68.0, -96.66145425476134, -3141.3009185320698, -5219.681130757555, 2647.6752632805146, -0.01600000075995922, -0.1600000075995922, 0.9760000463575125, 0.0, 0.0, 0.0, 0.0, 0.0, 1.6511873831226974E9, 0.0, 2022-04-28 16:09:43.122
68.0, 115.76860312838107, -2925.7910535354167, -5426.396621008404, 2817.870630464051, -0.01600000075995922, -0.1600000075995922, 0.9760000463575125, 0.0, 0.0, 0.0, 0.0, 0.0, 1.6511873831226974E9, 0.0, 2022-04-28 16:09:43.122
69.0, 2.2327202735468745, -2741.260649821721, -5239.461461623199, 2622.8834664742462, -0.01600000075995922, -0.1600000075995922, 0.9760000463575125, 0.0, 0.0, 0.0, 0.0, 0.0, 1.6511873831234424E9, 0.0, 2022-04-28 16:09:43.123
69.0, -87.12470936775208, -2509.648645565845, -5116.321515682153, 2409.5558331017382, -0.01600000075995922, -0.1600000075995922, 0.9760000463575125, 0.0, 0.0, 0.0, 0.0, 0.0, 1.6511873831234424E9, 0.0, 2022-04-28 16:09:43.123
70.0, 82.04218532796949, -2544.2464600559324, -5281.075328430161, 2305.1546558886766, -0.01600000075995922, -0.1600000075995922, 0.9760000463575125, 0.0, 0.0, 0.0, 0.0, 0.0, 1.6511873831370184E9, 0.0, 2022-04-28 16:09:43.137
70.0, 33.995690597221255, -2721.263404758647, -5329.570611155592, 2185.7228207536973, -0.01600000075995922, -0.1600000075995922, 0.9760000463575125, 0.0, 0.0, 0.0, 0.0, 0.0, 1.6511873831370184E9, 0.0, 2022-04-28 16:09:43.137
71.0, -44.022362378425896, -2893.697102065664, -5416.981422869954, 2048.210439282935, -0.01600000075995922, -0.1600000075995922, 0.9760000463575125, 0.0, 0.0, 0.0, 0.0, 0.0, 1.6511873831527252E9, 0.0, 2022-04-28 16:09:43.152
71.0, -21.635321243666112, -2918.9208573168144, -5222.4168675751425, 2288.9085304811597, -0.01600000075995922, -0.1600000075995922, 0.9760000463575125, 0.0, 0.0, 0.0, 0.0, 0.0, 1.6511873831527252E9, 0.0, 2022-04-28 16:09:43.152
72.0, 92.15113490819931, -2917.6549011818133, -5437.487294327002, 2405.6233282983303, -0.01600000075995922, -0.1600000075995922, 0.9760000463575125, 0.0, 0.0, 0.0, 0.0, 0.0, 1.6511873831534777E9, 0.0, 2022-04-28 16:09:43.153
72.0, 3.1228164630010724, -3038.227405803278, -5670.713065413758, 2406.1525241420604, -0.01600000075995922, -0.1600000075995922, 0.9760000463575125, 0.0, 0.0, 0.0, 0.0, 0.0, 1.6511873831534777E9, 0.0, 2022-04-28 16:09:43.153
73.0, -91.24607911892235, -3144.711707291659, -5714.236151148099, 2650.7662905938923, -0.01600000075995922, -0.1600000075995922, 0.9760000463575125, 0.0, 0.0, 0.0, 0.0, 0.0, 1.651187383183437E9, 0.0, 2022-04-28 16:09:43.183
73.0, 118.06490170117468, -2929.3663978930563, -5910.457482123282, 2797.4825658556074, -0.01600000075995922, -0.1600000075995922, 0.9760000463575125, 0.0, 0.0, 0.0, 0.0, 0.0, 1.651187383183437E9, 0.0, 2022-04-28 16:09:43.183
74.0, 8.246479402296245, -2748.209383939393, -5728.952657473739, 2642.7778642885387, -0.01600000075995922, -0.1600000075995922, 0.9760000463575125, 0.0, 0.0, 0.0, 0.0, 0.0, 1.6511873831840835E9, 0.0, 2022-04-28 16:09:43.184
74.0, -92.86171589978039, -2529.8179260268807, -5630.877521035727, 2449.264220881276, -0.01600000075995922, -0.1600000075995922, 0.9760000463575125, 0.0, 0.0, 0.0, 0.0, 0.0, 1.6511873831840835E9, 0.0, 2022-04-28 16:09:43.184
75.0, 83.16041541472077, -2517.526744822506, -5726.948071097489, 2259.4325089803897, -0.01600000075995922, -0.1600000075995922, 0.9760000463575125, 0.0, 0.0, 0.0, 0.0, 0.0, 1.6511873831851346E9, 0.0, 2022-04-28 16:09:43.185
75.0, 35.77962287608534, -2720.5472139171325, -5833.467901635449, 2192.961397117935, -0.01600000075995922, -0.1600000075995922, 0.9760000463575125, 0.0, 0.0, 0.0, 0.0, 0.0, 1.6511873831851346E9, 0.0, 2022-04-28 16:09:43.185
76.0, -41.632566306740046, -2902.315701513551, -5931.806701020338, 2075.9960260037333, -0.01600000075995922, -0.1600000075995922, 0.9760000463575125, 0.0, 0.0, 0.0, 0.0, 0.0, 1.6511873831969624E9, 0.0, 2022-04-28 16:09:43.196
76.0, -22.443139634095132, -2902.930915056262, -5688.137259307317, 2239.6072993152775, -0.01600000075995922, -0.1600000075995922, 0.9760000463575125, 0.0, 0.0, 0.0, 0.0, 0.0, 1.6511873831969624E9, 0.0, 2022-04-28 16:09:43.196
77.0, 93.20204679574817, -2924.1660670046695, -5456.37004920328, 2412.3981570680626, -0.01600000075995922, -0.1600000075995922, 0.9760000463575125, 0.0, 0.0, 0.0, 0.0, 0.0, 1.6511873832126381E9, 0.0, 2022-04-28 16:09:43.212
77.0, 2.9283416653051972, -3046.0961553100497, -5666.688933061436, 2392.262535706628, -0.01600000075995922, -0.1600000075995922, 0.9760000463575125, 0.0, 0.0, 0.0, 0.0, 0.0, 1.6511873832126381E9, 0.0, 2022-04-28 16:09:43.212
78.0, -96.3809617580846, -3152.5430577988736, -5729.390225768555, 2186.063151649665, -0.01600000075995922, -0.1600000075995922, 0.9760000463575125, 0.0, 0.0, 0.0, 0.0, 0.0, 1.651187383213353E9, 0.0, 2022-04-28 16:09:43.213
78.0, 120.43973817303777, -2916.1458515496925, -5882.44937135512, 2291.8537016962655, -0.01600000075995922, -0.1600000075995922, 0.9760000463575125, 0.0, 0.0, 0.0, 0.0, 0.0, 1.651187383213353E9, 0.0, 2022-04-28 16:09:43.213
79.0, 2.7525663673877716, -2749.727783321403, -5728.664685177151, 2160.519634952303, -0.01600000075995922, -0.1600000075995922, 0.9760000463575125, 0.0, 0.0, 0.0, 0.0, 0.0, 1.651187383227011E9, 0.0, 2022-04-28 16:09:43.227
79.0, -88.23171975463629, -2532.731308092363, -5643.110733790789, 1975.3197891465388, -0.01600000075995922, -0.1600000075995922, 0.9760000463575125, 0.0, 0.0, 0.0, 0.0, 0.0, 1.651187383227011E9, 0.0, 2022-04-28 16:09:43.227
80.0, 83.22773361392319, -2511.6476220921613, -5704.931280058343, 2220.2495771446265, -0.01600000075995922, -0.1600000075995922, 0.9760000463575125, 0.0, 0.0, 0.0, 0.0, 0.0, 1.6511873832426307E9, 0.0, 2022-04-28 16:09:43.242
80.0, 31.84150822274387, -2733.771500160452, -5843.8536038124, 2227.217010762077, -0.01600000075995922, -0.1600000075995922, 0.9760000463575125, 0.0, 0.0, 0.0, 0.0, 0.0, 1.6511873832426307E9, 0.0, 2022-04-28 16:09:43.242
81.0, -35.76466327626258, -2912.9145779879764, -5949.747001107782, 2117.4696465623565, -0.01600000075995922, -0.1600000075995922, 0.9760000463575125, 0.0, 0.0, 0.0, 0.0, 0.0, 1.6511873832433164E9, 0.0, 2022-04-28 16:09:43.243
81.0, -23.606248520314693, -2881.4807188604027, -6138.187470225152, 2196.8284536721185, -0.01600000075995922, -0.1600000075995922, 0.9760000463575125, 0.0, 0.0, 0.0, 0.0, 0.0, 1.6511873832433164E9, 0.0, 2022-04-28 16:09:43.243
82.0, 92.79813760053366, -2918.73386231903, -5942.835665989667, 2417.8154021538794, -0.01600000075995922, -0.1600000075995922, 0.9760000463575125, 0.0, 0.0, 0.0, 0.0, 0.0, 1.6511873832569149E9, 0.0, 2022-04-28 16:09:43.256
82.0, 1.0733512872830033, -3041.6699837124906, -6161.797458645422, 2379.0288997134194, -0.01600000075995922, -0.1600000075995922, 0.9760000463575125, 0.0, 0.0, 0.0, 0.0, 0.0, 1.6511873832569149E9, 0.0, 2022-04-28 16:09:43.256
83.0, -96.79609065316617, -3148.315100898966, -6219.143214615993, 2178.308469091542, -0.01600000075995922, -0.1600000075995922, 0.9760000463575125, 0.0, 0.0, 0.0, 0.0, 0.0, 1.6511873832733307E9, 0.0, 2022-04-28 16:09:43.273
83.0, 120.00964967813343, -2908.3537699920125, -6359.554018552415, 2267.8641134304926, -0.01600000075995922, -0.1600000075995922, 0.9760000463575125, 0.0, 0.0, 0.0, 0.0, 0.0, 1.6511873832733307E9, 0.0, 2022-04-28 16:09:43.273
84.0, 6.140915727242827, -2747.941981092561, -6227.288716719486, 2158.5842367252335, -0.01600000075995922, -0.1600000075995922, 0.9760000463575125, 0.0, 0.0, 0.0, 0.0, 0.0, 1.651187383274058E9, 0.0, 2022-04-28 16:09:43.274
84.0, -88.36261625308543, -2541.1217736429535, -6159.850840718485, 2009.5267840912566, -0.01600000075995922, -0.1600000075995922, 0.9760000463575125, 0.0, 0.0, 0.0, 0.0, 0.0, 1.651187383274058E9, 0.0, 2022-04-28 16:09:43.274
85.0, 81.14086943864822, -2499.853847581893, -6165.154018855654, 2173.8056295448914, -0.01600000075995922, -0.1600000075995922, 0.9760000463575125, 0.0, 0.0, 0.0, 0.0, 0.0, 1.6511873832869911E9, 0.0, 2022-04-28 16:09:43.286
85.0, 34.69879178889096, -2739.7235509399325, -6348.693349081092, 2236.852862997912, -0.01600000075995922, -0.1600000075995922, 0.9760000463575125, 0.0, 0.0, 0.0, 0.0, 0.0, 1.6511873832869911E9, 0.0, 2022-04-28 16:09:43.286
86.0, -41.93175830319524, -2916.5927695943974, -6461.240028397646, 2145.8872763756663, -0.01600000075995922, -0.1600000075995922, 0.9760000463575125, 0.0, 0.0, 0.0, 0.0, 0.0, 1.6511873833027124E9, 0.0, 2022-04-28 16:09:43.302
86.0, -26.751504383049905, -2881.12729831459, -6614.166407535784, 2175.6512701730244, -0.01600000075995922, -0.1600000075995922, 0.9760000463575125, 0.0, 0.0, 0.0, 0.0, 0.0, 1.6511873833027124E9, 0.0, 2022-04-28 16:09:43.302
87.0, 90.58037692680955, -2924.4203802016564, -6437.282229281496, 2413.879157450516, -0.01600000075995922, -0.1600000075995922, 0.9760000463575125, 0.0, 0.0, 0.0, 0.0, 0.0, 1.6511873833034267E9, 0.0, 2022-04-28 16:09:43.303
87.0, 4.117629851214588, -3038.7771710967645, -6667.231848007068, 2405.023074355442, -0.01600000075995922, -0.1600000075995922, 0.9760000463575125, 0.0, 0.0, 0.0, 0.0, 0.0, 1.6511873833034267E9, 0.0, 2022-04-28 16:09:43.303
88.0, -97.44309334550053, -3144.5621112934314, -6720.75916612288, 2198.0083921081387, -0.01600000075995922, -0.1600000075995922, 0.9760000463575125, 0.0, 0.0, 0.0, 0.0, 0.0, 1.6511873833169527E9, 0.0, 2022-04-28 16:09:43.316
88.0, 118.40897249709815, -2905.3749396773055, -6840.727676901501, 2252.0200272682123, -0.01600000075995922, -0.1600000075995922, 0.9760000463575125, 0.0, 0.0, 0.0, 0.0, 0.0, 1.6511873833169527E9, 0.0, 2022-04-28 16:09:43.316
89.0, 6.84775681886822, -2746.9826967539266, -6719.783052234445, 2178.2579804421403, -0.01600000075995922, -0.1600000075995922, 0.9760000463575125, 0.0, 0.0, 0.0, 0.0, 0.0, 1.6511873833326805E9, 0.0, 2022-04-28 16:09:43.332
89.0, -88.45985365193337, -2544.7775258496404, -6665.5021442775615, 2049.2164723710157, -0.01600000075995922, -0.1600000075995922, 0.9760000463575125, 0.0, 0.0, 0.0, 0.0, 0.0, 1.6511873833326805E9, 0.0, 2022-04-28 16:09:43.332
90.0, 81.87762972991914, -2476.761835305486, -6620.094148965552, 2141.980950871948, -0.01600000075995922, -0.1600000075995922, 0.9760000463575125, 0.0, 0.0, 0.0, 0.0, 0.0, 1.6511873833334782E9, 0.0, 2022-04-28 16:09:43.333
90.0, 33.08689490798861, -2252.1752331163734, -6850.789877732284, 2270.1174031537957, -0.01600000075995922, -0.1600000075995922, 0.9760000463575125, 0.0, 0.0, 0.0, 0.0, 0.0, 1.6511873833334782E9, 0.0, 2022-04-28 16:09:43.333
91.0, -40.28246242273599, -2436.370915784035, -6982.3090695240535, 2170.250854637008, -0.01600000075995922, -0.144000006839633, 0.9760000463575125, 0.0, 0.0, 0.0, 0.0, 0.0, 1.651187383346902E9, 0.0, 2022-04-28 16:09:43.346
91.0, -25.954905692487955, -2368.5216507879086, -7069.420689241961, 2133.9065068676136, -0.01600000075995922, -0.144000006839633, 0.9760000463575125, 0.0, 0.0, 0.0, 0.0, 0.0, 1.651187383346902E9, 0.0, 2022-04-28 16:09:43.346
92.0, 94.40629458148032, -2434.171854610089, -6916.37463330524, 1941.9804509915411, -0.01600000075995922, -0.144000006839633, 0.9760000463575125, 0.0, 0.0, 0.0, 0.0, 0.0, 1.651187383362671E9, 0.0, 2022-04-28 16:09:43.362
92.0, 0.3178914962336421, -2559.437933675945, -7157.734686795622, 1952.764452513773, -0.01600000075995922, -0.144000006839633, 0.9760000463575125, 0.0, 0.0, 0.0, 0.0, 0.0, 1.651187383362671E9, 0.0, 2022-04-28 16:09:43.362
93.0, -99.6384146194905, -2651.4787415354513, -7222.713578575756, 2195.5980265866965, -0.01600000075995922, -0.144000006839633, 0.9760000463575125, 0.0, 0.0, 0.0, 0.0, 0.0, 1.6511873833634448E9, 0.0, 2022-04-28 16:09:43.363
93.0, 118.42393209692091, -2414.928199388087, -7306.580835082103, 2228.684921494685, -0.01600000075995922, -0.144000006839633, 0.9760000463575125, 0.0, 0.0, 0.0, 0.0, 0.0, 1.6511873833634448E9, 0.0, 2022-04-28 16:09:43.363
94.0, 7.610696409828961, -2259.2997425319627, -7223.345621668268, 2192.190977727063, -0.01600000075995922, -0.144000006839633, 0.9760000463575125, 0.0, 0.0, 0.0, 0.0, 0.0, 1.6511873833769448E9, 0.0, 2022-04-28 16:09:43.376
94.0, -88.3401768533513, -2057.980927917175, -7175.856372030918, 2048.489061829634, -0.01600000075995922, -0.144000006839633, 0.9760000463575125, 0.0, 0.0, 0.0, 0.0, 0.0, 1.6511873833769448E9, 0.0, 2022-04-28 16:09:43.376
95.0, 79.41677555907518, -1983.8542408454232, -7071.182182121091, 2079.653648160398, -0.01600000075995922, -0.144000006839633, 0.9760000463575125, 0.0, 0.0, 0.0, 0.0, 0.0, 1.6511873833926444E9, 0.0, 2022-04-28 16:09:43.392
95.0, 35.40189298056066, -1766.321089972742, -6868.653509870637, 2295.816125699319, -0.01600000075995922, -0.144000006839633, 0.9760000463575125, 0.0, 0.0, 0.0, 0.0, 0.0, 1.6511873833926444E9, 0.0, 2022-04-28 16:09:43.392
96.0, -37.95998455025256, -1951.739719925914, -6996.440281506628, 2208.5268607335165, -0.01600000075995922, -0.144000006839633, 0.9760000463575125, 0.0, 0.0, 0.0, 0.0, 0.0, 1.6511873833935213E9, 0.0, 2022-04-28 16:09:43.393
96.0, -27.260130777023733, -1873.2653991556726, -7051.40746110538, 2123.4029978420585, -0.01600000075995922, -0.144000006839633, 0.9760000463575125, 0.0, 0.0, 0.0, 0.0, 0.0, 1.6511873833935213E9, 0.0, 2022-04-28 16:09:43.393
97.0, 94.21929958369583, -1954.6007433920167, -6937.862228500657, 1962.787384395022, -0.01600000075995922, -0.144000006839633, 0.9760000463575125, 0.0, 0.0, 0.0, 0.0, 0.0, 1.6511873834070516E9, 0.0, 2022-04-28 16:09:43.407
97.0, 0.762939590960741, -2068.6957412902266, -7162.617126187775, 1928.4102240023203, -0.01600000075995922, -0.144000006839633, 0.9760000463575125, 0.0, 0.0, 0.0, 0.0, 0.0, 1.6511873834070516E9, 0.0, 2022-04-28 16:09:43.407
98.0, -96.7512118536979, -2161.458349841181, -7218.620258074254, 1710.1234832885675, -0.01600000075995922, -0.144000006839633, 0.9760000463575125, 0.0, 0.0, 0.0, 0.0, 0.0, 1.6511873834390197E9, 0.0, 2022-04-28 16:09:43.439
98.0, 118.42393209692091, -1917.1587349856272, -7280.4707235414535, 1694.2307784268633, -0.01600000075995922, -0.144000006839633, 0.9760000463575125, 0.0, 0.0, 0.0, 0.0, 0.0, 1.6511873834390197E9, 0.0, 2022-04-28 16:09:43.439
99.0, 7.808911107480526, -1770.1881465269253, -7222.464875228703, 1698.0286468318664, -0.01600000075995922, -0.144000006839633, 0.9760000463575125, 0.0, 0.0, 0.0, 0.0, 0.0, 1.651187383439724E9, 0.0, 2022-04-28 16:09:43.439
99.0, -87.88390905875713, -1580.7285546716303, -7195.578734447248, 1582.5255766003393, -0.01600000075995922, -0.144000006839633, 0.9760000463575125, 0.0, 0.0, 0.0, 0.0, 0.0, 1.651187383439724E9, 0.0, 2022-04-28 16:09:43.439
100.0, 81.01371284015477, -1483.6239222721197, -7041.829577318858, 1536.3060229979455, -0.01600000075995922, -0.144000006839633, 0.9760000463575125, 0.0, 0.0, 0.0, 0.0, 0.0, 1.6511873834405031E9, 0.0, 2022-04-28 16:09:43.440
100.0, 34.69131198897958, -1292.0531568918377, -6868.6142409211025, 1309.8045920315199, -0.01600000075995922, -0.144000006839633, 0.9760000463575125, 0.0, 0.0, 0.0, 0.0, 0.0, 1.6511873834405031E9, 0.0, 2022-04-28 16:09:43.440
0.0, -41.840130754280835, 491.42472412763163, 334.8874715822749, -709.126170498319, -0.01600000075995922, -0.144000006839633, 0.9760000463575125, 0.0, 0.0, 0.0, 0.0, 0.0, 1.6511873834412026E9, 0.0, 2022-04-28 16:09:43.441
1.0, -30.534413188230246, 594.6908417041413, 323.61354316584766, -862.174096385017, -0.01600000075995922, -0.144000006839633, 0.9760000463575125, 0.0, 0.0, 0.0, 0.0, 0.0, 1.6511873834520073E9, 0.0, 2022-04-28 16:09:43.452
1.0, 95.29078092100099, 493.61256560171023, 415.78898742375895, -987.6832689479925, -0.01600000075995922, -0.144000006839633, 0.9760000463575125, 0.0, 0.0, 0.0, 0.0, 0.0, 1.6511873834520073E9, 0.0, 2022-04-28 16:09:43.452
2.0, -0.884486339520663, 378.45543611608446, 170.99196587409824, -1000.6195828947239, -0.03200000151991844, -0.144000006839633, 0.9760000463575125, 0.0, 0.0, 0.0, 0.0, 0.0, 1.651187383467688E9, 0.0, 2022-04-28 16:09:43.467
2.0, -98.00220838887617, 286.61284295422956, 123.99825298087671, -1212.8102866807021, -0.03200000151991844, -0.144000006839633, 0.9760000463575125, 0.0, 0.0, 0.0, 0.0, 0.0, 1.651187383467688E9, 0.0, 2022-04-28 16:09:43.467
3.0, 116.54463236918673, 52.42404762888327, 86.93958431994542, -1254.6092785354704, -0.03200000151991844, -0.144000006839633, 0.9760000463575125, 0.0, 0.0, 0.0, 0.0, 0.0, 1.6511873834683642E9, 0.0, 2022-04-28 16:09:43.468
3.0, 3.9960831026546657, 188.08517862157896, 130.38974200515077, -1254.3269160888158, -0.03200000151991844, -0.144000006839633, 0.9760000463575125, 0.0, 0.0, 0.0, 0.0, 0.0, 1.6511873834683642E9, 0.0, 2022-04-28 16:09:43.468
4.0, -94.10897253500298, 381.9428928247653, 128.81711407378316, -1311.768039508257, -0.03200000151991844, -0.144000006839633, 0.9760000463575125, 0.0, 0.0, 0.0, 0.0, 0.0, 1.6511873834819295E9, 0.0, 2022-04-28 16:09:43.481
4.0, 80.22272399952635, 489.91193459555507, 341.5183142037131, -1446.316550264135, -0.03200000151991844, -0.144000006839633, 0.9760000463575125, 0.0, 0.0, 0.0, 0.0, 0.0, 1.6511873834819295E9, 0.0, 2022-04-28 16:09:43.481
5.0, 37.35599070740864, 666.34732485516, 466.2944663753733, -1612.5681929443963, -0.03200000151991844, -0.144000006839633, 0.9760000463575125, 0.0, 0.0, 0.0, 0.0, 0.0, 1.651187383497627E9, 0.0, 2022-04-28 16:09:43.497
5.0, -38.14510959805921, 480.1208765115589, 316.03837580559775, -1677.6312324735336, -0.03200000151991844, -0.144000006839633, 0.9760000463575125, 0.0, 0.0, 0.0, 0.0, 0.0, 1.651187383497627E9, 0.0, 2022-04-28 16:09:43.497
6.0, -28.286733314860612, 606.4771364144981, 356.80702522257343, -1891.41139374068, -0.03200000151991844, -0.144000006839633, 0.9760000463575125, 0.0, 0.0, 0.0, 0.0, 0.0, 1.6511873834984665E9, 0.0, 2022-04-28 16:09:43.498
6.0, 95.01028842432424, 493.51719815284014, 421.5428235055879, -1972.8495852258056, -0.03200000151991844, -0.144000006839633, 0.9760000463575125, 0.0, 0.0, 0.0, 0.0, 0.0, 1.6511873834984665E9, 0.0, 2022-04-28 16:09:43.498
7.0, 2.6347595187835395, 381.33328913198784, 186.41344334138557, -1969.0479769208468, -0.03200000151991844, -0.144000006839633, 0.9760000463575125, 0.0, 0.0, 0.0, 0.0, 0.0, 1.6511873835120406E9, 0.0, 2022-04-28 16:09:43.512
7.0, -97.71423609228805, 282.0221157586202, 108.35986131615937, -2182.9365952867083, -0.03200000151991844, -0.144000006839633, 0.9760000463575125, 0.0, 0.0, 0.0, 0.0, 0.0, 1.6511873835120406E9, 0.0, 2022-04-28 16:09:43.512
8.0, 118.41458234703168, 42.496483196504414, 108.75442076148465, -2257.220358156599, -0.03200000151991844, -0.144000006839633, 0.9760000463575125, 0.0, 0.0, 0.0, 0.0, 0.0, 1.6511873835277047E9, 0.0, 2022-04-28 16:09:43.527
8.0, 6.23628317611292, 181.9797919439152, 121.31674471264705, -2218.61524086399, -0.03200000151991844, -0.144000006839633, 0.9760000463575125, 0.0, 0.0, 0.0, 0.0, 0.0, 1.6511873835277047E9, 0.0, 2022-04-28 16:09:43.527
9.0, -89.48271628981456, 374.67813716083765, 105.2370448531583, -2270.8579033450224, -0.03200000151991844, -0.144000006839633, 0.9760000463575125, 0.0, 0.0, 0.0, 0.0, 0.0, 1.651187383528479E9, 0.0, 2022-04-28 16:09:43.528
9.0, 76.80071554007009, 503.6354974829592, -111.11990748345852, -2461.661989234388, -0.03200000151991844, -0.144000006839633, 0.9760000463575125, 0.0, 0.0, 0.0, 0.0, 0.0, 1.651187383528479E9, 0.0, 2022-04-28 16:09:43.528
10.0, 37.14655630989, 664.4979443270713, -32.02663327055052, -2591.7487993431278, -0.03200000151991844, -0.144000006839633, 0.9760000463575125, 0.0, 0.0, 0.0, 0.0, 0.0, 1.6511873835419517E9, 0.0, 2022-04-28 16:09:43.541
10.0, -34.91757593629882, 473.2899492424913, -199.93879153113812, -2635.475709625054, -0.03200000151991844, -0.144000006839633, 0.9760000463575125, 0.0, 0.0, 0.0, 0.0, 0.0, 1.6511873835419517E9, 0.0, 2022-04-28 16:09:43.541
11.0, -31.046779482159764, 616.7225923431106, -107.59692172519863, -2419.232824237086, -0.03200000151991844, -0.144000006839633, 0.9760000463575125, 0.0, 0.0, 0.0, 0.0, 0.0, 1.6511873835576072E9, 0.0, 2022-04-28 16:09:43.557
11.0, 93.00570204807445, 483.74670951860026, -65.72313187131658, -2450.578795715701, -0.03200000151991844, -0.144000006839633, 0.9760000463575125, 0.0, 0.0, 0.0, 0.0, 0.0, 1.6511873835576072E9, 0.0, 2022-04-28 16:09:43.557
12.0, 1.3332743342034519, 375.23164235427976, 160.1668254523538, -2449.454955779016, -0.01600000075995922, -0.144000006839633, 0.9760000463575125, 0.0, 0.0, 0.0, 0.0, 0.0, 1.651187383558321E9, 0.0, 2022-04-28 16:09:43.558
12.0, -97.70301639242098, 284.91492837434635, 97.94423993956298, -2679.305467155762, -0.01600000075995922, -0.144000006839633, 0.9760000463575125, 0.0, 0.0, 0.0, 0.0, 0.0, 1.651187383558321E9, 0.0, 2022-04-28 16:09:43.558
13.0, 119.42061543511227, 55.32620999449864, 127.83165043545887, -2768.3917540502734, -0.01600000075995922, -0.144000006839633, 0.9760000463575125, 0.0, 0.0, 0.0, 0.0, 0.0, 1.6511873835719783E9, 0.0, 2022-04-28 16:09:43.571
13.0, 8.966410143766552, 174.30738718481734, 119.70671778172255, -2701.097864197567, -0.01600000075995922, -0.144000006839633, 0.9760000463575125, 0.0, 0.0, 0.0, 0.0, 0.0, 1.6511873835719783E9, 0.0, 2022-04-28 16:09:43.571
14.0, -87.07048081839457, 366.5681641069241, 85.67175823496655, -2721.154947659932, -0.01600000075995922, -0.144000006839633, 0.9760000463575125, 0.0, 0.0, 0.0, 0.0, 0.0, 1.6511873835876637E9, 0.0, 2022-04-28 16:09:43.587
14.0, 76.5389225431718, 511.45001844037324, -70.13995371898636, -2510.5836205547675, -0.01600000075995922, -0.144000006839633, 0.9760000463575125, 0.0, 0.0, 0.0, 0.0, 0.0, 1.6511873835876637E9, 0.0, 2022-04-28 16:09:43.587
15.0, 37.31859170785174, 654.8097334918566, -51.288987992331386, -2560.965682807844, -0.01600000075995922, -0.144000006839633, 0.9760000463575125, 0.0, 0.0, 0.0, 0.0, 0.0, 1.6511873835883656E9, 0.0, 2022-04-28 16:09:43.588
15.0, -35.73287412663922, 467.71562835853547, -214.58610970759764, -2597.134255279321, -0.01600000075995922, -0.144000006839633, 0.9760000463575125, 0.0, 0.0, 0.0, 0.0, 0.0, 1.6511873835883656E9, 0.0, 2022-04-28 16:09:43.588
16.0, -29.20300880400464, 632.5180598059669, -91.55462086526677, -2461.3403578381985, -0.01600000075995922, -0.144000006839633, 0.9760000463575125, 0.0, 0.0, 0.0, 0.0, 0.0, 1.6511873836020389E9, 0.0, 2022-04-28 16:09:43.602
16.0, 98.49961508298293, 484.5601377589628, -68.58228538744152, -2445.670177023858, -0.01600000075995922, -0.144000006839633, 0.9760000463575125, 0.0, 0.0, 0.0, 0.0, 0.0, 1.6511873836020389E9, 0.0, 2022-04-28 16:09:43.602
17.0, 7.204917264636606, 367.1515885000117, 165.61024983786047, -2461.587191235274, -0.01600000075995922, -0.144000006839633, 0.9760000463575125, 0.0, 0.0, 0.0, 0.0, 0.0, 1.6511873836176834E9, 0.0, 2022-04-28 16:09:43.617
17.0, -96.43145040748641, 286.2033239090815, 86.42347812606022, -2652.0902151782066, -0.01600000075995922, -0.144000006839633, 0.9760000463575125, 0.0, 0.0, 0.0, 0.0, 0.0, 1.6511873836176834E9, 0.0, 2022-04-28 16:09:43.617
18.0, 119.97038072859868, 58.65285100508481, 148.91159653570503, -2803.539333833847, -0.01600000075995922, -0.144000006839633, 0.9760000463575125, 0.0, 0.0, 0.0, 0.0, 0.0, 1.6511873836183484E9, 0.0, 2022-04-28 16:09:43.618
18.0, 9.44511733809486, 172.94793355092406, 96.71568280411884, -2675.554347500205, -0.01600000075995922, -0.144000006839633, 0.9760000463575125, 0.0, 0.0, 0.0, 0.0, 0.0, 1.6511873836183484E9, 0.0, 2022-04-28 16:09:43.618
19.0, -86.38981902645901, 358.5479486519471, 70.83370516076684, -2706.8124313298613, -0.01600000075995922, -0.144000006839633, 0.9760000463575125, 0.0, 0.0, 0.0, 0.0, 0.0, 1.6511873836483405E9, 0.0, 2022-04-28 16:09:43.648
19.0, 79.14937271224335, 532.9376136357896, -36.467764467932284, -2567.38148118183, -0.01600000075995922, -0.144000006839633, 0.9760000463575125, 0.0, 0.0, 0.0, 0.0, 0.0, 1.6511873836483405E9, 0.0, 2022-04-28 16:09:43.648
20.0, 36.29759901994839, 651.2699181837961, -62.07485946454108, -2533.370830984786, -0.01600000075995922, -0.144000006839633, 0.9760000463575125, 0.0, 0.0, 0.0, 0.0, 0.0, 1.6511873836490424E9, 0.0, 2022-04-28 16:09:43.649
20.0, -37.92071560071781, 462.2759438729845, -244.80824124952778, -2560.544944062829, -0.01600000075995922, -0.144000006839633, 0.9760000463575125, 0.0, 0.0, 0.0, 0.0, 0.0, 1.6511873836490424E9, 0.0, 2022-04-28 16:09:43.649
21.0, -31.58532507577911, 644.783061710652, -57.03908417420462, -2484.140657918062, -0.01600000075995922, -0.144000006839633, 0.9760000463575125, 0.0, 0.0, 0.0, 0.0, 0.0, 1.6511873836498296E9, 0.0, 2022-04-28 16:09:43.649
21.0, 94.87565202591941, 479.2176906722598, -74.86344736302271, -2449.6662601265125, -0.01600000075995922, -0.144000006839633, 0.9760000463575125, 0.0, 0.0, 0.0, 0.0, 0.0, 1.6511873836498296E9, 0.0, 2022-04-28 16:09:43.649
22.0, 0.7348903412930667, 371.48800249863416, 161.44587123719975, -2440.9728626795113, -0.01600000075995922, -0.144000006839633, 0.9760000463575125, 0.0, 0.0, 0.0, 0.0, 0.0, 1.651187383662079E9, 0.0, 2022-04-28 16:09:43.662
22.0, -95.7320891157724, 282.61488990159705, 82.59943042136729, -2639.961719621904, -0.01600000075995922, -0.144000006839633, 0.9760000463575125, 0.0, 0.0, 0.0, 0.0, 0.0, 1.651187383662079E9, 0.0, 2022-04-28 16:09:43.662
23.0, 119.22614063741639, 61.31004992360249, 167.97947645979002, -2818.547552356031, -0.01600000075995922, -0.144000006839633, 0.9760000463575125, 0.0, 0.0, 0.0, 0.0, 0.0, 1.6511873836776335E9, 0.0, 2022-04-28 16:09:43.677
23.0, 8.356806450989097, 179.09445912810043, 99.87776821665466, -2672.670884634368, -0.01600000075995922, -0.144000006839633, 0.9760000463575125, 0.0, 0.0, 0.0, 0.0, 0.0, 1.6511873836776335E9, 0.0, 2022-04-28 16:09:43.677
24.0, -88.27846850408241, 351.963854779955, 40.37782987160608, -2676.377125490457, -0.01600000075995922, -0.144000006839633, 0.9760000463575125, 0.0, 0.0, 0.0, 0.0, 0.0, 1.6511873836784403E9, 0.0, 2022-04-28 16:09:43.678
24.0, 75.89939965074882, 535.3105801576748, -3.1658253124915063, -2600.9770024837926, -0.01600000075995922, -0.144000006839633, 0.9760000463575125, 0.0, 0.0, 0.0, 0.0, 0.0, 1.6511873836784403E9, 0.0, 2022-04-28 16:09:43.678
25.0, 39.59619078086689, 641.6340659479611, -74.73255086457357, -2525.6815966758877, -0.01600000075995922, -0.144000006839633, 0.9760000463575125, 0.0, 0.0, 0.0, 0.0, 0.0, 1.6511873836919515E9, 0.0, 2022-04-28 16:09:43.691
25.0, -34.37903034267947, 447.2172367013991, -262.9299264848232, -2529.309299632907, -0.01600000075995922, -0.144000006839633, 0.9760000463575125, 0.0, 0.0, 0.0, 0.0, 0.0, 1.6511873836919515E9, 0.0, 2022-04-28 16:09:43.691
26.0, -32.78583296155557, 657.5080713098869, -41.18003841210157, -2520.866475482937, -0.01600000075995922, -0.144000006839633, 0.9760000463575125, 0.0, 0.0, 0.0, 0.0, 0.0, 1.6511873837076595E9, 0.0, 2022-04-28 16:09:43.707
26.0, 97.9909886890091, 477.8657168382779, -61.14736427552998, -2459.008530215826, -0.01600000075995922, -0.144000006839633, 0.9760000463575125, 0.0, 0.0, 0.0, 0.0, 0.0, 1.6511873837076595E9, 0.0, 2022-04-28 16:09:43.707
27.0, 7.391912262421101, 371.72548614582047, 151.72774120233953, -2433.4594036685303, -0.01600000075995922, -0.144000006839633, 0.9760000463575125, 0.0, 0.0, 0.0, 0.0, 0.0, 1.6511873837085009E9, 0.0, 2022-04-28 16:09:43.708
27.0, -98.01716798869893, 275.8064020322636, 71.50501720281318, -2645.2798573588952, -0.01600000075995922, -0.144000006839633, 0.9760000463575125, 0.0, 0.0, 0.0, 0.0, 0.0, 1.6511873837085009E9, 0.0, 2022-04-28 16:09:43.708
28.0, 116.01730647543445, 61.2146824747324, 185.58879540115595, -2838.5373176191933, -0.01600000075995922, -0.144000006839633, 0.9760000463575125, 0.0, 0.0, 0.0, 0.0, 0.0, 1.651187383721918E9, 0.0, 2022-04-28 16:09:43.721
28.0, 7.160038465168327, 172.0466176616028, 104.27028071461245, -2669.6153863705695, -0.01600000075995922, -0.144000006839633, 0.9760000463575125, 0.0, 0.0, 0.0, 0.0, 0.0, 1.651187383721918E9, 0.0, 2022-04-28 16:09:43.721
29.0, -82.64243927085772, 344.6841395162046, 21.597922244109213, -2641.5156480534934, -0.01600000075995922, -0.144000006839633, 0.9760000463575125, 0.0, 0.0, 0.0, 0.0, 0.0, 1.6511873837374935E9, 0.0, 2022-04-28 16:09:43.737
29.0, 79.58694100705907, 545.6046547857113, 30.235221191775054, -2640.9696226599626, -0.01600000075995922, -0.144000006839633, 0.9760000463575125, 0.0, 0.0, 0.0, 0.0, 0.0, 1.6511873837374935E9, 0.0, 2022-04-28 16:09:43.737
30.0, 38.41438239486888, 639.8220844194293, -89.17604449344799, -2489.159603658598, -0.01600000075995922, -0.144000006839633, 0.9760000463575125, 0.0, 0.0, 0.0, 0.0, 0.0, 1.6511873837528863E9, 0.0, 2022-04-28 16:09:43.752
30.0, -33.758206950034946, 445.4501339723356, -294.1356517150998, -2505.660042263102, -0.01600000075995922, -0.144000006839633, 0.9760000463575125, 0.0, 0.0, 0.0, 0.0, 0.0, 1.6511873837528863E9, 0.0, 2022-04-28 16:09:43.752
31.0, -35.815151925664395, 662.8766976962797, -504.7051088702865, -2545.6470525893383, -0.01600000075995922, -0.144000006839633, 0.9760000463575125, 0.0, 0.0, 0.0, 0.0, 0.0, 1.651187383753456E9, 0.0, 2022-04-28 16:09:43.753
31.0, 95.01028842432424, 467.85587460687384, -561.2187371007167, -2444.0713697928004, -0.01600000075995922, -0.144000006839633, 0.9760000463575125, 0.0, 0.0, 0.0, 0.0, 0.0, 1.651187383753456E9, 0.0, 2022-04-28 16:09:43.753
32.0, 3.184524812269956, 372.7296492839232, -328.29776786034927, -2420.33983462397, -0.03200000151991844, -0.144000006839633, 0.9760000463575125, 0.0, 0.0, 0.0, 0.0, 0.0, 1.6511873837824883E9, 0.0, 2022-04-28 16:09:43.782
32.0, -97.30284709716216, 283.5947436899878, -437.51967611629516, -2606.0707462234423, -0.03200000151991844, -0.144000006839633, 0.9760000463575125, 0.0, 0.0, 0.0, 0.0, 0.0, 1.6511873837824883E9, 0.0, 2022-04-28 16:09:43.782
33.0, 119.24484013719484, 67.06949585536495, -293.2249860758893, -2374.114671171643, -0.03200000151991844, -0.144000006839633, 0.9760000463575125, 0.0, 0.0, 0.0, 0.0, 0.0, 1.6511873837990718E9, 0.0, 2022-04-28 16:09:43.799
33.0, 9.291781439911574, 177.12727175140753, -398.5312190782279, -2160.807607248891, -0.03200000151991844, -0.144000006839633, 0.9760000463575125, 0.0, 0.0, 0.0, 0.0, 0.0, 1.6511873837990718E9, 0.0, 2022-04-28 16:09:43.799
34.0, -87.62024611188099, 335.45219647558406, -499.4355898327194, -2127.0942790983245, -0.03200000151991844, -0.144000006839633, 0.9760000463575125, 0.0, 0.0, 0.0, 0.0, 0.0, 1.651187383799827E9, 0.0, 2022-04-28 16:09:43.799
34.0, 74.6091341660358, 561.4263015482575, -422.3057630965486, -2216.8126090853475, -0.03200000151991844, -0.144000006839633, 0.9760000463575125, 0.0, 0.0, 0.0, 0.0, 0.0, 1.651187383799827E9, 0.0, 2022-04-28 16:09:43.799
35.0, 38.81081179017201, 634.2328039356507, -579.9462861288339, -1996.4651834960096, -0.03200000151991844, -0.144000006839633, 0.9760000463575125, 0.0, 0.0, 0.0, 0.0, 0.0, 1.651187383800581E9, 0.0, 2022-04-28 16:09:43.800
35.0, -32.647456663195044, 438.993196698837, -799.3493869793601, -1986.5563185634091, -0.03200000151991844, -0.144000006839633, 0.9760000463575125, 0.0, 0.0, 0.0, 0.0, 0.0, 1.651187383800581E9, 0.0, 2022-04-28 16:09:43.800
36.0, -35.88247012486681, 670.881953551434, -966.7940577454865, -2104.026576171629, -0.03200000151991844, -0.144000006839633, 0.9760000463575125, 0.0, 0.0, 0.0, 0.0, 0.0, 1.6511873838012598E9, 0.0, 2022-04-28 16:09:43.801
36.0, 98.49961508298293, 468.3289719512686, -1050.5304177533835, -1953.3983655562624, -0.03200000151991844, -0.144000006839633, 0.9760000463575125, 0.0, 0.0, 0.0, 0.0, 0.0, 1.6511873838012598E9, 0.0, 2022-04-28 16:09:43.801
37.0, -1.8344209282658994, 366.3512499094941, -842.7677555149421, -1932.6624902519397, -0.03200000151991844, -0.144000006839633, 0.9760000463575125, 0.0, 0.0, 0.0, 0.0, 0.0, 1.6511873838119757E9, 0.0, 2022-04-28 16:09:43.811
37.0, -96.72690250398591, 279.1648321924731, -929.8232767335139, -2123.917234085966, -0.03200000151991844, -0.144000006839633, 0.9760000463575125, 0.0, 0.0, 0.0, 0.0, 0.0, 1.6511873838119757E9, 0.0, 2022-04-28 16:09:43.811
38.0, 119.24484013719484, 76.99332038778812, -749.9883174141869, -1899.8224287410267, -0.03200000151991844, -0.144000006839633, 0.9760000463575125, 0.0, 0.0, 0.0, 0.0, 0.0, 1.651187383827799E9, 0.0, 2022-04-28 16:09:43.827
38.0, 8.072574054356664, 169.10331639647484, -898.3632383062504, -1682.7792047625408, -0.03200000151991844, -0.144000006839633, 0.9760000463575125, 0.0, 0.0, 0.0, 0.0, 0.0, 1.651187383827799E9, 0.0, 2022-04-28 16:09:43.827
39.0, -84.8751595444046, 335.87667512055486, -1014.7994135767221, -1604.370332241524, -0.03200000151991844, -0.144000006839633, 0.9760000463575125, 0.0, 0.0, 0.0, 0.0, 0.0, 1.651187383828536E9, 0.0, 2022-04-28 16:09:43.828
39.0, 74.1640860713087, 570.1982368943281, -883.1642848863266, -1758.2242065686733, -0.03200000151991844, -0.144000006839633, 0.9760000463575125, 0.0, 0.0, 0.0, 0.0, 0.0, 1.651187383828536E9, 0.0, 2022-04-28 16:09:43.828
40.0, 34.73432083847001, 624.6006915997714, -1080.2270933515392, -1978.091055013705, -0.03200000151991844, -0.144000006839633, 0.9760000463575125, 0.0, 0.0, 0.0, 0.0, 0.0, 1.6511873838420792E9, 0.0, 2022-04-28 16:09:43.842
40.0, -35.14196993364021, 431.0477792429738, -1312.7759425463155, -1965.3174267150462, -0.03200000151991844, -0.144000006839633, 0.9760000463575125, 0.0, 0.0, 0.0, 0.0, 0.0, 1.6511873838420792E9, 0.0, 2022-04-28 16:09:43.842
41.0, -33.71332815056667, 197.15256606414914, -1450.3014136669226, -2135.423036299646, -0.03200000151991844, -0.1600000075995922, 0.9760000463575125, 0.0, 0.0, 0.0, 0.0, 0.0, 1.6511873838578658E9, 0.0, 2022-04-28 16:09:43.857
41.0, 96.69698330434039, -23.961539016105235, -1540.1936490018852, -1953.7012974526733, -0.03200000151991844, -0.1600000075995922, 0.9760000463575125, 0.0, 0.0, 0.0, 0.0, 0.0, 1.6511873838578658E9, 0.0, 2022-04-28 16:09:43.857
42.0, -0.26366294687613845, -128.81524412380531, -1327.9879856160842, -1927.2957338155247, -0.03200000151991844, -0.1600000075995922, 0.9760000463575125, 0.0, 0.0, 0.0, 0.0, 0.0, 1.651187383858398E9, 0.0, 2022-04-28 16:09:43.858
42.0, -95.57875321758911, -214.2102497620508, -1431.8954960349947, -2103.9611279224046, -0.03200000151991844, -0.1600000075995922, 0.9760000463575125, 0.0, 0.0, 0.0, 0.0, 0.0, 1.651187383858398E9, 0.0, 2022-04-28 16:09:43.858
43.0, 117.77505945460871, -415.95915287174284, -1219.022260507103, -1920.006668801885, -0.03200000151991844, -0.1600000075995922, 0.9760000463575125, 0.0, 0.0, 0.0, 0.0, 0.0, 1.6511873838720179E9, 0.0, 2022-04-28 16:09:43.872
43.0, 9.209503640886396, -327.0804304247722, -1407.5599670233205, -2137.844621520955, -0.03200000151991844, -0.1600000075995922, 0.9760000463575125, 0.0, 0.0, 0.0, 0.0, 0.0, 1.6511873838720179E9, 0.0, 2022-04-28 16:09:43.872
44.0, -85.7241168343462, -161.80677158292383, -1523.2332027028315, -2073.479073333554, -0.03200000151991844, -0.1600000075995922, 0.9760000463575125, 0.0, 0.0, 0.0, 0.0, 0.0, 1.651187383887598E9, 0.0, 2022-04-28 16:09:43.887
44.0, 75.49175055557862, -401.3810228444636, -1316.4672238025814, -2308.9787035933696, -0.03200000151991844, -0.1600000075995922, 0.9760000463575125, 0.0, 0.0, 0.0, 0.0, 0.0, 1.651187383887598E9, 0.0, 2022-04-28 16:09:43.887
45.0, 41.058491663541645, -355.4045627391897, -1100.142060615588, -2446.1189650185406, -0.03200000151991844, -0.1600000075995922, 0.9760000463575125, 0.0, 0.0, 0.0, 0.0, 0.0, 1.6511873838883302E9, 0.0, 2022-04-28 16:09:43.888
45.0, -36.47711421782151, -558.3371441848576, -1320.622252653353, -2426.807991597336, -0.03200000151991844, -0.1600000075995922, 0.9760000463575125, 0.0, 0.0, 0.0, 0.0, 0.0, 1.6511873838883302E9, 0.0, 2022-04-28 16:09:43.888
46.0, -37.70006150333211, -774.060183478985, -1416.6049150661565, -2658.1544629563577, -0.03200000151991844, -0.1600000075995922, 0.9760000463575125, 0.0, 0.0, 0.0, 0.0, 0.0, 1.6511873839020956E9, 0.0, 2022-04-28 16:09:43.902
46.0, 99.29995367350057, -1008.1854005050845, -1540.0477929036133, -2446.7491381610744, -0.03200000151991844, -0.1600000075995922, 0.9760000463575125, 0.0, 0.0, 0.0, 0.0, 0.0, 1.6511873839020956E9, 0.0, 2022-04-28 16:09:43.902
47.0, 1.9092189273796976, -1104.8973434092477, -1338.351248393301, -2403.334509525448, -0.03200000151991844, -0.1600000075995922, 0.9760000463575125, 0.0, 0.0, 0.0, 0.0, 0.0, 1.6511873839176526E9, 0.0, 2022-04-28 16:09:43.917
47.0, -99.28125417372212, -1188.1867853724398, -1452.57714278996, -2586.2305769585073, -0.03200000151991844, -0.1600000075995922, 0.9760000463575125, 0.0, 0.0, 0.0, 0.0, 0.0, 1.6511873839176526E9, 0.0, 2022-04-28 16:09:43.917
48.0, 116.75780666666105, -1397.8418369884603, -1695.8090162081644, -2444.3350327396765, -0.03200000151991844, -0.1600000075995922, 0.9760000463575125, 0.0, 0.0, 0.0, 0.0, 0.0, 1.6511873839183347E9, 0.0, 2022-04-28 16:09:43.918
48.0, 9.396498638670892, -1306.6892553684302, -1888.8346026712097, -2635.185867378488, -0.03200000151991844, -0.1600000075995922, 0.9760000463575125, 0.0, 0.0, 0.0, 0.0, 0.0, 1.6511873839183347E9, 0.0, 2022-04-28 16:09:43.918
49.0, -81.71120418189093, -1147.6574895526282, -2032.112039923668, -2525.122481632512, -0.03200000151991844, -0.1600000075995922, 0.9760000463575125, 0.0, 0.0, 0.0, 0.0, 0.0, 1.651187383932005E9, 0.0, 2022-04-28 16:09:43.932
49.0, 76.31078864587471, -1366.1835838635452, -1788.089177664835, -2342.7238208935596, -0.03200000151991844, -0.1600000075995922, 0.9760000463575125, 0.0, 0.0, 0.0, 0.0, 0.0, 1.651187383932005E9, 0.0, 2022-04-28 16:09:43.932
50.0, 40.04871867550537, -1338.7196285389364, -1598.702513858676, -2437.588253219612, -0.03200000151991844, -0.1600000075995922, 0.9760000463575125, 0.0, 0.0, 0.0, 0.0, 0.0, 1.6511873839477675E9, 0.0, 2022-04-28 16:09:43.947
50.0, -34.80911883758381, -1544.5543723502196, -1843.6865304061212, -2395.5536476676352, -0.03200000151991844, -0.1600000075995922, 0.9760000463575125, 0.0, 0.0, 0.0, 0.0, 0.0, 1.6511873839477675E9, 0.0, 2022-04-28 16:09:43.947
51.0, -39.824324678163975, -1742.3932100562379, -1887.6434445353225, -2197.415617965162, -0.03200000151991844, -0.144000006839633, 0.9760000463575125, 0.0, 0.0, 0.0, 0.0, 0.0, 1.6511873839483624E9, 0.0, 2022-04-28 16:09:43.948
51.0, 97.08219299977645, -1499.1370272883214, -2032.8263608152047, -1962.2469688514248, -0.03200000151991844, -0.144000006839633, 0.9760000463575125, 0.0, 0.0, 0.0, 0.0, 0.0, 1.6511873839483624E9, 0.0, 2022-04-28 16:09:43.948
52.0, 2.372966521885246, -1605.3894549794495, -1841.3921017833054, -1900.4058531341143, -0.03200000151991844, -0.144000006839633, 0.9760000463575125, 0.0, 0.0, 0.0, 0.0, 0.0, 1.651187383961938E9, 0.0, 2022-04-28 16:09:43.961
52.0, -96.8054404030554, -1678.9588969578035, -1947.023706081789, -2078.555987523403, -0.03200000151991844, -0.144000006839633, 0.9760000463575125, 0.0, 0.0, 0.0, 0.0, 0.0, 1.651187383961938E9, 0.0, 2022-04-28 16:09:43.961
53.0, 120.35185052407905, -1873.3962956541218, -2162.10161263356, -1992.553248142358, -0.03200000151991844, -0.144000006839633, 0.9760000463575125, 0.0, 0.0, 0.0, 0.0, 0.0, 1.651187383977739E9, 0.0, 2022-04-28 16:09:43.977
53.0, 7.889318956527859, -1797.9737332477234, -2387.2865988155827, -2128.416333732661, -0.03200000151991844, -0.144000006839633, 0.9760000463575125, 0.0, 0.0, 0.0, 0.0, 0.0, 1.651187383977739E9, 0.0, 2022-04-28 16:09:43.977
54.0, -84.97987674316391, -1649.574503005948, -2548.4444977561943, -2011.63234776631, -0.03200000151991844, -0.144000006839633, 0.9760000463575125, 0.0, 0.0, 0.0, 0.0, 0.0, 1.651187383978457E9, 0.0, 2022-04-28 16:09:43.978
54.0, 72.44373209169134, -1843.2863611108623, -2725.3679449600168, -1920.3675691476092, -0.03200000151991844, -0.144000006839633, 0.9760000463575125, 0.0, 0.0, 0.0, 0.0, 0.0, 1.651187383978457E9, 0.0, 2022-04-28 16:09:43.978
55.0, 40.224493973422796, -1842.7796046668664, -2594.3349401624873, -1926.7646680218168, -0.03200000151991844, -0.144000006839633, 0.9760000463575125, 0.0, 0.0, 0.0, 0.0, 0.0, 1.651187383992044E9, 0.0, 2022-04-28 16:09:43.992
55.0, -33.73576755030081, -2045.764544711914, -2353.5826204149053, -1875.4663302795961, -0.03200000151991844, -0.144000006839633, 0.9760000463575125, 0.0, 0.0, 0.0, 0.0, 0.0, 1.651187383992044E9, 0.0, 2022-04-28 16:09:43.992
56.0, -39.24838008498773, -2221.2238210830837, -2351.2040440430865, -1738.9319326472469, -0.03200000151991844, -0.144000006839633, 0.9760000463575125, 0.0, 0.0, 0.0, 0.0, 0.0, 1.651187384007644E9, 0.0, 2022-04-28 16:09:44.007
56.0, 96.31551350886002, -1990.9450911614113, -2520.408337738365, -1955.586207030341, -0.03200000151991844, -0.144000006839633, 0.9760000463575125, 0.0, 0.0, 0.0, 0.0, 0.0, 1.651187384007644E9, 0.0, 2022-04-28 16:09:44.007
57.0, 2.862893416080624, -2092.3506085099652, -2329.6173414988443, -1899.8523479406722, -0.03200000151991844, -0.144000006839633, 0.9760000463575125, 0.0, 0.0, 0.0, 0.0, 0.0, 1.6511873840084336E9, 0.0, 2022-04-28 16:09:44.008
57.0, -94.49418223043904, -2167.7114625670947, -2456.2522239484824, -2075.227476562839, -0.03200000151991844, -0.144000006839633, 0.9760000463575125, 0.0, 0.0, 0.0, 0.0, 0.0, 1.6511873840084336E9, 0.0, 2022-04-28 16:09:44.008
58.0, 115.80039227800444, -2363.3119701496325, -2635.2812348273583, -2003.7841677092947, -0.03200000151991844, -0.144000006839633, 0.9760000463575125, 0.0, 0.0, 0.0, 0.0, 0.0, 1.6511873840219622E9, 0.0, 2022-04-28 16:09:44.021
58.0, 8.712096946779639, -2293.271123779472, -2391.4621971161105, -2127.5636365427636, -0.03200000151991844, -0.144000006839633, 0.9760000463575125, 0.0, 0.0, 0.0, 0.0, 0.0, 1.6511873840219622E9, 0.0, 2022-04-28 16:09:44.021
59.0, -86.08314723009244, -2142.657872763928, -2575.9159328807145, -1989.4323016293347, -0.03200000151991844, -0.144000006839633, 0.9760000463575125, 0.0, 0.0, 0.0, 0.0, 0.0, 1.6511873840377097E9, 0.0, 2022-04-28 16:09:44.037
59.0, 73.13935348344967, -2327.2368951770477, -2695.8844436593354, -1934.9606587747112, -0.03200000151991844, -0.144000006839633, 0.9760000463575125, 0.0, 0.0, 0.0, 0.0, 0.0, 1.6511873840377097E9, 0.0, 2022-04-28 16:09:44.037
60.0, 41.72793375561014, -2335.3225588812493, -2595.892608494032, -1904.0092467414215, -0.03200000151991844, -0.144000006839633, 0.9760000463575125, 0.0, 0.0, 0.0, 0.0, 0.0, 1.651187384038453E9, 0.0, 2022-04-28 16:09:44.038
60.0, -32.85689106071368, -2548.1995343090966, -2379.93956535263, -1841.3042141343467, -0.03200000151991844, -0.144000006839633, 0.9760000463575125, 0.0, 0.0, 0.0, 0.0, 0.0, 1.651187384038453E9, 0.0, 2022-04-28 16:09:44.038
61.0, -36.52947281720117, -2693.3843205389567, -2330.4569490388967, -1760.2213131450117, -0.03200000151991844, -0.144000006839633, 0.9760000463575125, 0.0, 0.0, 0.0, 0.0, 0.0, 1.6511873840519943E9, 0.0, 2022-04-28 16:09:44.051
61.0, 101.91414374252781, -2485.8142631482333, -2512.833170378115, -1942.2254144386388, -0.03200000151991844, -0.144000006839633, 0.9760000463575125, 0.0, 0.0, 0.0, 0.0, 0.0, 1.6511873840519943E9, 0.0, 2022-04-28 16:09:44.051
62.0, 1.7633628291077912, -2587.369376495015, -2345.072478065733, -1908.766399485059, -0.03200000151991844, -0.144000006839633, 0.9760000463575125, 0.0, 0.0, 0.0, 0.0, 0.0, 1.651187384067673E9, 0.0, 2022-04-28 16:09:44.067
62.0, -99.52434767084196, -2662.8386876508594, -2458.6027510706335, -2059.5180267989635, -0.03200000151991844, -0.144000006839633, 0.9760000463575125, 0.0, 0.0, 0.0, 0.0, 0.0, 1.651187384067673E9, 0.0, 2022-04-28 16:09:44.067
63.0, 121.46260081091896, -2852.0290067093447, -2612.017187152989, -2013.502297744155, -0.03200000151991844, -0.144000006839633, 0.9760000463575125, 0.0, 0.0, 0.0, 0.0, 0.0, 1.6511873840684638E9, 0.0, 2022-04-28 16:09:44.068
63.0, 8.26330895209685, -2785.365289999172, -2395.8023510146886, -2130.572386057116, -0.03200000151991844, -0.144000006839633, 0.9760000463575125, 0.0, 0.0, 0.0, 0.0, 0.0, 1.6511873840684638E9, 0.0, 2022-04-28 16:09:44.068
64.0, -87.77358201006427, -2638.4171409402043, -2594.4901460106485, -1984.8041754341684, -0.03200000151991844, -0.144000006839633, 0.9760000463575125, 0.0, 0.0, 0.0, 0.0, 0.0, 1.6511873840819848E9, 0.0, 2022-04-28 16:09:44.081
64.0, 72.56714879022911, -2802.37435499765, -2665.3575102710165, -1983.7158645470627, -0.03200000151991844, -0.144000006839633, 0.9760000463575125, 0.0, 0.0, 0.0, 0.0, 0.0, 1.6511873840819848E9, 0.0, 2022-04-28 16:09:44.081
65.0, 39.843024177942425, -2827.1399725042284, -2609.7433279799297, -1885.0161648164503, -0.03200000151991844, -0.144000006839633, 0.9760000463575125, 0.0, 0.0, 0.0, 0.0, 0.0, 1.651187384097669E9, 0.0, 2022-04-28 16:09:44.097
65.0, -32.561438964214176, -3039.508321538102, -2399.800304067321, -1826.6157570583746, -0.03200000151991844, -0.144000006839633, 0.9760000463575125, 0.0, 0.0, 0.0, 0.0, 0.0, 1.651187384097669E9, 0.0, 2022-04-28 16:09:44.097
66.0, -41.451181158889085, -3175.081564881839, -2314.1640748819336, -1816.142167232465, -0.03200000151991844, -0.144000006839633, 0.9760000463575125, 0.0, 0.0, 0.0, 0.0, 0.0, 1.651187384098484E9, 0.0, 2022-04-28 16:09:44.098
66.0, 99.46076937159523, -2974.5088603082113, -2520.2063831407577, -1932.454925804399, -0.03200000151991844, -0.144000006839633, 0.9760000463575125, 0.0, 0.0, 0.0, 0.0, 0.0, 1.651187384098484E9, 0.0, 2022-04-28 16:09:44.098
67.0, 3.981123502831906, -3075.3459128635004, -2341.9627512525767, -1876.758465714287, -0.03200000151991844, -0.144000006839633, 0.9760000463575125, 0.0, 0.0, 0.0, 0.0, 0.0, 1.651187384111992E9, 0.0, 2022-04-28 16:09:44.111
67.0, -97.96106948936358, -3151.4098681122996, -2467.7112774127163, -2055.7425977936946, -0.03200000151991844, -0.144000006839633, 0.9760000463575125, 0.0, 0.0, 0.0, 0.0, 0.0, 1.651187384111992E9, 0.0, 2022-04-28 16:09:44.111
68.0, 117.23651386098936, -3333.460718155373, -2591.337410348002, -2050.626414654311, -0.03200000151991844, -0.144000006839633, 0.9760000463575125, 0.0, 0.0, 0.0, 0.0, 0.0, 1.6511873841277204E9, 0.0, 2022-04-28 16:09:44.127
68.0, 5.323747586924583, -3283.6938694450073, -2414.0137938489206, -2103.1570494319312, -0.03200000151991844, -0.144000006839633, 0.9760000463575125, 0.0, 0.0, 0.0, 0.0, 0.0, 1.6511873841277204E9, 0.0, 2022-04-28 16:09:44.127
69.0, -81.9468178790994, -3129.576332170982, -2619.0444591697305, -1920.513425245881, -0.03200000151991844, -0.144000006839633, 0.9760000463575125, 0.0, 0.0, 0.0, 0.0, 0.0, 1.6511873841284475E9, 0.0, 2022-04-28 16:09:44.128
69.0, 70.32320881681517, -3280.948782877531, -2611.585228708107, -2030.5468917922117, -0.03200000151991844, -0.144000006839633, 0.9760000463575125, 0.0, 0.0, 0.0, 0.0, 0.0, 1.6511873841284475E9, 0.0, 2022-04-28 16:09:44.128
70.0, 43.56048473389819, -3329.612361100968, -2629.8135010921396, -1873.7815053495578, -0.03200000151991844, -0.144000006839633, 0.9760000463575125, 0.0, 0.0, 0.0, 0.0, 0.0, 1.651187384141975E9, 0.0, 2022-04-28 16:09:44.141
70.0, -35.6281569278799, -3533.352760937065, -2421.717987757642, -1794.8453069347888, -0.03200000151991844, -0.144000006839633, 0.9760000463575125, 0.0, 0.0, 0.0, 0.0, 0.0, 1.651187384141975E9, 0.0, 2022-04-28 16:09:44.141
71.0, -47.79405148373917, -3659.673491790425, -2279.78878443921, -1833.2054607803002, -0.03200000151991844, -0.1600000075995922, 0.9760000463575125, 0.0, 0.0, 0.0, 0.0, 0.0, 1.6511873841576898E9, 0.0, 2022-04-28 16:09:44.157
