%OpenBCI Raw EEG Data
%Number of channels = 4
%Sample Rate = 200 Hz
%Board = OpenBCI_GUI$BoardGanglionBLE
Sample Index, EXG Channel 0, EXG Channel 1, EXG Channel 2, EXG Channel 3, Accel Channel 0, Accel Channel 1, Accel Channel 2, Other, Other, Other, Other, Other, Timestamp, Other, Timestamp (Formatted)
16.0, -25.3079030001536, 16.178807208314538, 7.969726805575192, 4.02413235232234, 0.0, 0.0, 0.0, 0.0, 0.0, 0.0, 0.0, 0.0, 1.64669152437773E9, 0.0, 2022-03-07 14:18:44.377
16.0, 13.351442841812968, 19.626994967460632, -28.337221964262426, -37.660792553797364, 0.0, 0.0, 0.0, 0.0, 0.0, 0.0, 0.0, 0.0, 1.64669152437773E9, 0.0, 2022-03-07 14:18:44.377
0.0, -77.68146197963506, 72.23990754410625, -3.6725817564874887, 31.488087676931173, 0.0, 0.0, 0.0, 0.0, 0.0, 0.0, 0.0, 0.0, 1.646691524400389E9, 0.0, 2022-03-07 14:18:44.400
1.0, -45.35002686269581, 48.30454782769084, 0.9312350889667869, 20.088872611988336, 0.0, 0.9280000440776348, 0.0, 0.0, 0.0, 0.0, 0.0, 0.0, 1.646691524413958E9, 0.0, 2022-03-07 14:18:44.413
1.0, -11.601169662550092, 16.16758750844747, 30.072535543702543, -4.822600992862135, 0.0, 0.9280000440776348, 0.0, 0.0, 0.0, 0.0, 0.0, 0.0, 1.646691524413958E9, 0.0, 2022-03-07 14:18:44.413
2.0, -67.52763359993696, 64.15798373986036, 2.569311269558966, 25.384570949245244, -0.35200001671910286, 0.9280000440776348, 0.0, 0.0, 0.0, 0.0, 0.0, 0.0, 1.6466915244306107E9, 0.0, 2022-03-07 14:18:44.430
2.0, -61.46151587180793, 61.319399673491716, -9.076737192459404, 31.906956471968442, -0.35200001671910286, 0.9280000440776348, 0.0, 0.0, 0.0, 0.0, 0.0, 0.0, 1.6466915244306107E9, 0.0, 2022-03-07 14:18:44.430
3.0, -14.163001132197678, 18.003878386691213, 21.257591348141432, -1.8755598277784884, -0.35200001671910286, 0.9280000440776348, 0.0, 0.0, 0.0, 0.0, 0.0, 0.0, 1.646691524431355E9, 0.0, 2022-03-07 14:18:44.431
3.0, -51.88363208528608, 48.27836852800101, 14.260238531045616, 11.128072318155318, -0.35200001671910286, 0.9280000440776348, 0.0, 0.0, 0.0, 0.0, 0.0, 0.0, 1.646691524431355E9, 0.0, 2022-03-07 14:18:44.431
4.0, -76.11444389820099, 74.80921881366521, -13.336483241990209, 33.09624465787783, -0.35200001671910286, 0.9280000440776348, 0.0, 0.0, 0.0, 0.0, 0.0, 0.0, 1.6466915244438245E9, 0.0, 2022-03-07 14:18:44.443
4.0, -28.311042664572597, 31.73679102398455, 8.05574450455606, 9.08982684230432, -0.35200001671910286, 0.9280000440776348, 0.0, 0.0, 0.0, 0.0, 0.0, 0.0, 1.6466915244438245E9, 0.0, 2022-03-07 14:18:44.443
5.0, -31.231904529966414, 27.4209464751184, 24.567402808927, 0.6750519420020282, -0.35200001671910286, 0.9280000440776348, 0.0, 0.0, 0.0, 0.0, 0.0, 0.0, 1.6466915244593384E9, 0.0, 2022-03-07 14:18:44.459
5.0, -79.87304335366935, 73.34691793099046, -1.3463639840483665, 31.016860282514244, -0.35200001671910286, 0.9280000440776348, 0.0, 0.0, 0.0, 0.0, 0.0, 0.0, 1.6466915244593384E9, 0.0, 2022-03-07 14:18:44.459
6.0, -45.293928363360465, 47.58274713624269, -2.01206617616117, 22.80403997981921, -0.35200001671910286, 0.9280000440776348, 0.0, 0.0, 0.0, 0.0, 0.0, 0.0, 1.6466915244600687E9, 0.0, 2022-03-07 14:18:44.460
6.0, -12.4501269524917, 15.038137721829116, 27.0132973799482, -1.1201000367291272, -0.35200001671910286, 0.9280000440776348, 0.0, 0.0, 0.0, 0.0, 0.0, 0.0, 1.6466915244600687E9, 0.0, 2022-03-07 14:18:44.460
7.0, -67.78194679692388, 61.69338966906071, 8.04452480468899, 26.270927238743752, -0.35200001671910286, 0.9280000440776348, 0.0, 0.0, 0.0, 0.0, 0.0, 0.0, 1.6466915244737248E9, 0.0, 2022-03-07 14:18:44.473
7.0, -62.224455462768674, 64.86482483148575, -7.176868014968932, 29.93602919531986, -0.35200001671910286, 0.9280000440776348, 0.0, 0.0, 0.0, 0.0, 0.0, 0.0, 1.6466915244737248E9, 0.0, 2022-03-07 14:18:44.473
8.0, -11.556290863081813, 15.183993820101023, 22.465579033829272, 1.6848249300383031, -0.35200001671910286, 0.9280000440776348, 0.0, 0.0, 0.0, 0.0, 0.0, 0.0, 1.6466915244894269E9, 0.0, 2022-03-07 14:18:44.489
8.0, -49.87904570903629, 45.42108496185392, 21.033197350800037, 17.710296240169555, -0.35200001671910286, 0.9280000440776348, 0.0, 0.0, 0.0, 0.0, 0.0, 0.0, 1.6466915244894269E9, 0.0, 2022-03-07 14:18:44.489
9.0, -72.2174681443721, 74.61848391592503, -5.168541738763452, 34.958714835811406, -0.35200001671910286, 0.9280000440776348, 0.0, 0.0, 0.0, 0.0, 0.0, 0.0, 1.646691524490122E9, 0.0, 2022-03-07 14:18:44.490
9.0, -23.441692922264338, 32.97095800936222, 10.138868779875338, 9.261862240266055, -0.35200001671910286, 0.9280000440776348, 0.0, 0.0, 0.0, 0.0, 0.0, 0.0, 1.646691524490122E9, 0.0, 2022-03-07 14:18:44.490
10.0, -28.21006536576897, 27.892173869535327, 20.288957259617746, -0.12154674855992198, -0.35200001671910286, 0.9280000440776348, 0.33600001595914364, 0.0, 0.0, 0.0, 0.0, 0.0, 1.6466915245036666E9, 0.0, 2022-03-07 14:18:44.503
10.0, -79.64864935632795, 77.53934578131884, -6.170834926888347, 35.12701033381745, -0.35200001671910286, 0.9280000440776348, 0.33600001595914364, 0.0, 0.0, 0.0, 0.0, 0.0, 1.6466915245036666E9, 0.0, 2022-03-07 14:18:44.503
11.0, -45.85491335671395, 46.14288565330207, 2.128003074787557, 21.92890339018777, -0.35200001671910286, 0.2240000106394291, 0.33600001595914364, 0.0, 0.0, 0.0, 0.0, 0.0, 1.6466915245193577E9, 0.0, 2022-03-07 14:18:44.519
11.0, -9.450727188028395, 13.800230836495757, 25.061069603078067, -5.809934581164271, -0.35200001671910286, 0.2240000106394291, 0.33600001595914364, 0.0, 0.0, 0.0, 0.0, 0.0, 1.6466915245193577E9, 0.0, 2022-03-07 14:18:44.519
12.0, -68.91139658354223, 63.387564348988235, 7.393782212398946, 26.39434393728152, -0.43200002051889896, 0.2240000106394291, 0.33600001595914364, 0.0, 0.0, 0.0, 0.0, 0.0, 1.6466915245201128E9, 0.0, 2022-03-07 14:18:44.520
12.0, -61.820546267554164, 63.99342814181, -6.787918419577181, 28.219415115658194, -0.43200002051889896, 0.2240000106394291, 0.33600001595914364, 0.0, 0.0, 0.0, 0.0, 0.0, 1.6466915245201128E9, 0.0, 2022-03-07 14:18:44.520
13.0, -11.934020758606493, 16.623855303041637, 16.84076950047165, -3.061108113732189, -0.43200002051889896, 0.2240000106394291, 0.33600001595914364, 0.0, 0.0, 0.0, 0.0, 0.0, 1.6466915245336828E9, 0.0, 2022-03-07 14:18:44.533
13.0, -52.02948818355799, 48.899191920645535, 10.284724878147244, 14.191050381865352, -0.43200002051889896, 0.2240000106394291, 0.33600001595914364, 0.0, 0.0, 0.0, 0.0, 0.0, 1.6466915245336828E9, 0.0, 2022-03-07 14:18:44.533
14.0, -74.24449392035604, 73.2571603320539, -4.686094644479454, 37.60282410448417, -0.43200002051889896, 0.2240000106394291, 0.33600001595914364, 0.0, 0.0, 0.0, 0.0, 0.0, 1.646691524565779E9, 0.0, 2022-03-07 14:18:44.565
14.0, -23.535190421156585, 28.872027657926083, 9.577883786521852, 9.142185441683978, -0.43200002051889896, 0.2240000106394291, 0.33600001595914364, 0.0, 0.0, 0.0, 0.0, 0.0, 1.646691524565779E9, 0.0, 2022-03-07 14:18:44.565
15.0, -29.620007649064064, 29.545209649950266, 24.54496340919286, 2.096213925164193, -0.43200002051889896, 0.2240000106394291, 0.33600001595914364, 0.0, 0.0, 0.0, 0.0, 0.0, 1.6466915245665576E9, 0.0, 2022-03-07 14:18:44.566
15.0, -76.71282789111137, 73.9976605232805, -2.1093035750091076, 29.734074597712606, -0.43200002051889896, 0.2240000106394291, 0.33600001595914364, 0.0, 0.0, 0.0, 0.0, 0.0, 1.6466915245665576E9, 0.0, 2022-03-07 14:18:44.566
16.0, -43.12478638906032, 47.709903734736145, 8.545671398751438, 17.224109245929867, -0.43200002051889896, 0.2240000106394291, 0.33600001595914364, 0.0, 0.0, 0.0, 0.0, 0.0, 1.6466915245672412E9, 0.0, 2022-03-07 14:18:44.567
16.0, -10.827010371722281, 16.814590200781822, 29.481631350703537, -6.733689870219678, -0.43200002051889896, 0.2240000106394291, 0.33600001595914364, 0.0, 0.0, 0.0, 0.0, 0.0, 1.6466915245672412E9, 0.0, 2022-03-07 14:18:44.567
17.0, -69.31156587880105, 65.47068862430751, 4.342023848555982, 24.030727165285498, -0.43200002051889896, 0.2240000106394291, 0.33600001595914364, 0.0, 0.0, 0.0, 0.0, 0.0, 1.6466915245679982E9, 0.0, 2022-03-07 14:18:44.567
17.0, -61.60363207012415, 63.4735820479691, -6.073597528040409, 30.41473638964817, -0.43200002051889896, 0.2240000106394291, 0.33600001595914364, 0.0, 0.0, 0.0, 0.0, 0.0, 1.6466915245679982E9, 0.0, 2022-03-07 14:18:44.567
18.0, -11.818083859980106, 18.10111578553915, 22.60769523214549, 0.5927741429768503, -0.43200002051889896, 0.2240000106394291, 0.33600001595914364, 0.0, 0.0, 0.0, 0.0, 0.0, 1.6466915245787764E9, 0.0, 2022-03-07 14:18:44.578
18.0, -55.5449941419065, 47.702423934824765, 14.10690263286233, 14.523901477921754, -0.43200002051889896, 0.2240000106394291, 0.33600001595914364, 0.0, 0.0, 0.0, 0.0, 0.0, 1.6466915245787764E9, 0.0, 2022-03-07 14:18:44.578
19.0, -78.13772977422923, 73.9602615237236, -6.484986523166299, 35.9236090243794, -0.43200002051889896, 0.2240000106394291, 0.33600001595914364, 0.0, 0.0, 0.0, 0.0, 0.0, 1.646691524593666E9, 0.0, 2022-03-07 14:18:44.593
19.0, -25.962385492399335, 29.552689449861646, 12.4501269524917, 7.994036155287176, -0.43200002051889896, 0.2240000106394291, 0.33600001595914364, 0.0, 0.0, 0.0, 0.0, 0.0, 1.646691524593666E9, 0.0, 2022-03-07 14:18:44.593
20.0, -29.189919154159725, 26.317675988189876, 23.206079225055873, 0.925625239033252, -0.43200002051889896, 0.2240000106394291, 0.2240000106394291, 0.0, 0.0, 0.0, 0.0, 0.0, 1.6466915246098285E9, 0.0, 2022-03-07 14:18:44.609
20.0, -73.52269322890788, 73.91164282429963, -7.180607914924622, 32.243547467980534, -0.43200002051889896, 0.2240000106394291, 0.2240000106394291, 0.0, 0.0, 0.0, 0.0, 0.0, 1.6466915246098285E9, 0.0, 2022-03-07 14:18:44.609
21.0, -40.65271251834929, 47.94551743194461, 0.5684647932648659, 22.602085382211953, -0.43200002051889896, 0.35200001671910286, 0.2240000106394291, 0.0, 0.0, 0.0, 0.0, 0.0, 1.6466915246244235E9, 0.0, 2022-03-07 14:18:44.624
21.0, -13.078430145047605, 14.637968426570296, 24.17097341362387, -6.62897267146036, -0.43200002051889896, 0.35200001671910286, 0.2240000106394291, 0.0, 0.0, 0.0, 0.0, 0.0, 1.6466915246244235E9, 0.0, 2022-03-07 14:18:44.624
22.0, -69.44994217716157, 64.45343583635986, -2.932081565260887, 26.76833393285051, -0.6560000311583281, 0.35200001671910286, 0.2240000106394291, 0.0, 0.0, 0.0, 0.0, 0.0, 1.6466915246251037E9, 0.0, 2022-03-07 14:18:44.625
22.0, -59.311073397286236, 58.34243930876255, -9.050557892769575, 28.514867212157696, -0.6560000311583281, 0.35200001671910286, 0.2240000106394291, 0.0, 0.0, 0.0, 0.0, 0.0, 1.6466915246251037E9, 0.0, 2022-03-07 14:18:44.625
23.0, -10.924247770570219, 16.216206207871437, 23.830642517656088, -3.266802611295134, -0.6560000311583281, 0.35200001671910286, 0.2240000106394291, 0.0, 0.0, 0.0, 0.0, 0.0, 1.6466915246394818E9, 0.0, 2022-03-07 14:18:44.639
23.0, -52.33615997992456, 50.5784070007503, 18.95755287539214, 14.075113483238965, -0.6560000311583281, 0.35200001671910286, 0.2240000106394291, 0.0, 0.0, 0.0, 0.0, 0.0, 1.6466915246394818E9, 0.0, 2022-03-07 14:18:44.639
24.0, -72.06787214614451, 73.10008453391492, -5.497652934864163, 36.12556362198666, -0.6560000311583281, 0.35200001671910286, 0.2240000106394291, 0.0, 0.0, 0.0, 0.0, 0.0, 1.646691524640124E9, 0.0, 2022-03-07 14:18:44.640
24.0, -23.32949592359364, 30.12115424312651, 10.797091172076762, 7.4667102615348995, -0.6560000311583281, 0.35200001671910286, 0.2240000106394291, 0.0, 0.0, 0.0, 0.0, 0.0, 1.646691524640124E9, 0.0, 2022-03-07 14:18:44.640
25.0, -27.981931468471885, 29.986517844721675, 23.845602117478848, 3.105986913200468, -0.6560000311583281, 0.35200001671910286, 0.2240000106394291, 0.0, 0.0, 0.0, 0.0, 0.0, 1.646691524653829E9, 0.0, 2022-03-07 14:18:44.653
25.0, -76.58193139266223, 72.53535964060575, 0.1645555980503559, 29.692935698200017, -0.6560000311583281, 0.35200001671910286, 0.2240000106394291, 0.0, 0.0, 0.0, 0.0, 0.0, 1.646691524653829E9, 0.0, 2022-03-07 14:18:44.653
26.0, -40.821008016355336, 47.53412843681872, 4.712273944169283, 17.717776040080935, -0.6560000311583281, 0.35200001671910286, 0.2240000106394291, 0.0, 0.0, 0.0, 0.0, 0.0, 1.6466915246858964E9, 0.0, 2022-03-07 14:18:44.685
26.0, -15.617822214961052, 17.973959187045693, 29.3469949522987, -7.160038465168327, -0.6560000311583281, 0.35200001671910286, 0.2240000106394291, 0.0, 0.0, 0.0, 0.0, 0.0, 1.6466915246858964E9, 0.0, 2022-03-07 14:18:44.685
27.0, -65.6240245224908, 65.89329731930047, 1.21172758564353, 25.635144246276468, -0.6560000311583281, 0.35200001671910286, 0.2240000106394291, 0.0, 0.0, 0.0, 0.0, 0.0, 1.6466915246865213E9, 0.0, 2022-03-07 14:18:44.686
27.0, -58.533174206502736, 56.524847930297256, -12.8951750472188, 33.11494415765628, -0.6560000311583281, 0.35200001671910286, 0.2240000106394291, 0.0, 0.0, 0.0, 0.0, 0.0, 1.6466915246865213E9, 0.0, 2022-03-07 14:18:44.686
28.0, -11.586210062727332, 13.833889936096966, 22.787210430018604, -2.0326356259174645, -0.6560000311583281, 0.35200001671910286, 0.2240000106394291, 0.0, 0.0, 0.0, 0.0, 0.0, 1.6466915246873372E9, 0.0, 2022-03-07 14:18:44.687
28.0, -52.897144973278046, 47.246156140230596, 13.807710636407137, 18.30868023307994, -0.6560000311583281, 0.35200001671910286, 0.2240000106394291, 0.0, 0.0, 0.0, 0.0, 0.0, 1.6466915246873372E9, 0.0, 2022-03-07 14:18:44.687
29.0, -71.82477864902467, 74.98499411158264, -5.867903030477464, 32.47542126523331, -0.6560000311583281, 0.35200001671910286, 0.2240000106394291, 0.0, 0.0, 0.0, 0.0, 0.0, 1.6466915246879787E9, 0.0, 2022-03-07 14:18:44.687
29.0, -25.77539049461484, 30.293189641088247, 9.880815682932734, 9.396498638670892, -0.6560000311583281, 0.35200001671910286, 0.2240000106394291, 0.0, 0.0, 0.0, 0.0, 0.0, 1.6466915246879787E9, 0.0, 2022-03-07 14:18:44.687
30.0, -32.48851091507822, 31.4226394277066, 19.73919196613133, 3.580954207573086, -0.6560000311583281, 0.35200001671910286, 0.3200000151991844, 0.0, 0.0, 0.0, 0.0, 0.0, 1.6466915246986904E9, 0.0, 2022-03-07 14:18:44.698
30.0, -74.34921111911535, 71.9220160478726, -6.627102721482515, 31.772320073563606, -0.6560000311583281, 0.35200001671910286, 0.3200000151991844, 0.0, 0.0, 0.0, 0.0, 0.0, 1.6466915246986904E9, 0.0, 2022-03-07 14:18:44.698
31.0, -39.45968443248421, 43.01258939038962, 4.697314344346523, 18.200223134364933, -0.6560000311583281, 0.41600001975893974, 0.3200000151991844, 0.0, 0.0, 0.0, 0.0, 0.0, 1.6466915247136788E9, 0.0, 2022-03-07 14:18:44.713
31.0, -13.545917639508843, 14.353736029937863, 31.179545930586755, -4.564547895919532, -0.6560000311583281, 0.41600001975893974, 0.3200000151991844, 0.0, 0.0, 0.0, 0.0, 0.0, 1.6466915247136788E9, 0.0, 2022-03-07 14:18:44.713
32.0, -68.42520958930254, 63.29406685009599, 6.776698719710112, 26.607518234755844, -0.7200000341981649, 0.41600001975893974, 0.3200000151991844, 0.0, 0.0, 0.0, 0.0, 0.0, 1.6466915247294016E9, 0.0, 2022-03-07 14:18:44.729
32.0, -58.71642930433154, 56.62582522910088, -4.282185449264944, 31.682562474627048, -0.7200000341981649, 0.41600001975893974, 0.3200000151991844, 0.0, 0.0, 0.0, 0.0, 0.0, 1.6466915247294016E9, 0.0, 2022-03-07 14:18:44.729
33.0, -15.617822214961052, 13.426240840926766, 25.958645592443645, -1.7184840296395123, -0.7200000341981649, 0.41600001975893974, 0.3200000151991844, 0.0, 0.0, 0.0, 0.0, 0.0, 1.6466915247302117E9, 0.0, 2022-03-07 14:18:44.730
33.0, -52.45583677850664, 47.238676340319216, 18.11607538536191, 12.912004597019404, -0.7200000341981649, 0.41600001975893974, 0.3200000151991844, 0.0, 0.0, 0.0, 0.0, 0.0, 1.6466915247302117E9, 0.0, 2022-03-07 14:18:44.730
34.0, -69.59953817538917, 68.42146968934685, -4.01665255241096, 33.10372445778921, -0.7200000341981649, 0.41600001975893974, 0.3200000151991844, 0.0, 0.0, 0.0, 0.0, 0.0, 1.6466915247436965E9, 0.0, 2022-03-07 14:18:44.743
34.0, -24.331789111718535, 27.43590607494116, 14.361215829849243, 10.899938420858234, -0.7200000341981649, 0.41600001975893974, 0.3200000151991844, 0.0, 0.0, 0.0, 0.0, 0.0, 1.6466915247436965E9, 0.0, 2022-03-07 14:18:44.743
35.0, -30.13611384294927, 28.56535586155951, 23.36315502319485, 4.901138891931623, -0.7200000341981649, 0.41600001975893974, 0.3200000151991844, 0.0, 0.0, 0.0, 0.0, 0.0, 1.6466915247594209E9, 0.0, 2022-03-07 14:18:44.759
35.0, -75.77037310227752, 68.03999989386648, -2.984440164640546, 39.1100037866272, -0.7200000341981649, 0.41600001975893974, 0.3200000151991844, 0.0, 0.0, 0.0, 0.0, 0.0, 1.6466915247594209E9, 0.0, 2022-03-07 14:18:44.759
36.0, -45.45848396141082, 47.747302734293044, 1.7091342797502875, 20.088872611988336, -0.7200000341981649, 0.41600001975893974, 0.3200000151991844, 0.0, 0.0, 0.0, 0.0, 0.0, 1.6466915247601209E9, 0.0, 2022-03-07 14:18:44.760
36.0, -9.409588288515806, 9.615282786078751, 26.10450169071555, -6.296121575403959, -0.7200000341981649, 0.41600001975893974, 0.3200000151991844, 0.0, 0.0, 0.0, 0.0, 0.0, 1.6466915247601209E9, 0.0, 2022-03-07 14:18:44.760
37.0, -67.82308569643646, 59.322293097153306, 6.552304722368717, 26.611258134711534, -0.7200000341981649, 0.41600001975893974, 0.3200000151991844, 0.0, 0.0, 0.0, 0.0, 0.0, 1.6466915247737672E9, 0.0, 2022-03-07 14:18:44.773
37.0, -62.590965658426285, 65.60532502271235, -4.712273944169283, 34.71188143873587, -0.7200000341981649, 0.41600001975893974, 0.3200000151991844, 0.0, 0.0, 0.0, 0.0, 0.0, 1.6466915247737672E9, 0.0, 2022-03-07 14:18:44.773
38.0, -5.557491334155202, 13.112089244648814, 23.075182726606727, -3.2481031115166843, -0.7200000341981649, 0.41600001975893974, 0.3200000151991844, 0.0, 0.0, 0.0, 0.0, 0.0, 1.646691524789386E9, 0.0, 2022-03-07 14:18:44.789
38.0, -37.978684050031006, 45.73897645808756, 20.449772957712412, 6.22880337620154, -0.7200000341981649, 0.41600001975893974, 0.3200000151991844, 0.0, 0.0, 0.0, 0.0, 0.0, 1.646691524789386E9, 0.0, 2022-03-07 14:18:44.789
39.0, -70.63175056315958, 76.01346659939736, -8.156721803359687, 32.72225466230884, -0.7200000341981649, 0.41600001975893974, 0.3200000151991844, 0.0, 0.0, 0.0, 0.0, 0.0, 1.6466915247901025E9, 0.0, 2022-03-07 14:18:44.790
39.0, -23.052743326872587, 30.9401923334226, 14.039584433659911, 9.418938038405031, -0.7200000341981649, 0.41600001975893974, 0.3200000151991844, 0.0, 0.0, 0.0, 0.0, 0.0, 1.6466915247901025E9, 0.0, 2022-03-07 14:18:44.790
40.0, -20.16928046103567, 24.286910312250257, 31.632073825225234, -2.3654867219738662, -0.7200000341981649, 0.41600001975893974, 0.3840000182390213, 0.0, 0.0, 0.0, 0.0, 0.0, 1.646691524803779E9, 0.0, 2022-03-07 14:18:44.803
40.0, -73.21602143254131, 78.35090407170355, -5.508872634731233, 32.66615616297349, -0.7200000341981649, 0.41600001975893974, 0.3840000182390213, 0.0, 0.0, 0.0, 0.0, 0.0, 1.646691524803779E9, 0.0, 2022-03-07 14:18:44.803
41.0, -45.686617858707905, 50.41385140269995, 3.171435162425041, 23.48844167171046, -0.7200000341981649, 0.5280000250786543, 0.3840000182390213, 0.0, 0.0, 0.0, 0.0, 0.0, 1.646691524819393E9, 0.0, 2022-03-07 14:18:44.819
41.0, -0.684401691891253, 11.369295865297318, 19.35398227069527, -13.259815292898566, -0.7200000341981649, 0.5280000250786543, 0.3840000182390213, 0.0, 0.0, 0.0, 0.0, 0.0, 1.646691524819393E9, 0.0, 2022-03-07 14:18:44.819
42.0, -59.58034619409591, 65.30239312630147, 3.500546358525753, 18.559253530111164, -0.7520000357180834, 0.5280000250786543, 0.3840000182390213, 0.0, 0.0, 0.0, 0.0, 0.0, 1.64669152482011E9, 0.0, 2022-03-07 14:18:44.820
42.0, -60.30962668545544, 71.09923805762082, -9.918214682489634, 27.381677525583655, -0.7520000357180834, 0.5280000250786543, 0.3840000182390213, 0.0, 0.0, 0.0, 0.0, 0.0, 1.64669152482011E9, 0.0, 2022-03-07 14:18:44.820
43.0, -9.372189288958907, 18.841615976765752, 22.364601735025644, -4.20925740012899, -0.7520000357180834, 0.5280000250786543, 0.3840000182390213, 0.0, 0.0, 0.0, 0.0, 0.0, 1.646691524833675E9, 0.0, 2022-03-07 14:18:44.833
43.0, -44.497329672798514, 48.525201925076544, 17.36061559431255, 9.654551735613495, -0.7520000357180834, 0.5280000250786543, 0.3840000182390213, 0.0, 0.0, 0.0, 0.0, 0.0, 1.646691524833675E9, 0.0, 2022-03-07 14:18:44.833
44.0, -70.53451316431165, 79.8917428534478, -13.24672564305365, 27.5125740240328, -0.7520000357180834, 0.5280000250786543, 0.3840000182390213, 0.0, 0.0, 0.0, 0.0, 0.0, 1.6466915248493793E9, 0.0, 2022-03-07 14:18:44.849
44.0, -25.637014196254313, 33.06819540821016, 5.385455936193466, 7.687364358920604, -0.7520000357180834, 0.5280000250786543, 0.3840000182390213, 0.0, 0.0, 0.0, 0.0, 0.0, 1.6466915248493793E9, 0.0, 2022-03-07 14:18:44.849
45.0, -26.422393186949193, 26.074582491070032, 20.05708346236497, 1.5015698322094977, -0.7520000357180834, 0.5280000250786543, 0.3840000182390213, 0.0, 0.0, 0.0, 0.0, 0.0, 1.6466915248501654E9, 0.0, 2022-03-07 14:18:44.850
45.0, -72.79341273754835, 80.91647544130683, -12.756798748858273, 29.457322000991553, -0.7520000357180834, 0.5280000250786543, 0.3840000182390213, 0.0, 0.0, 0.0, 0.0, 0.0, 1.6466915248501654E9, 0.0, 2022-03-07 14:18:44.850
46.0, -46.539315048605204, 55.94142353720963, -5.770665631629527, 17.93095033755526, -0.7520000357180834, 0.5280000250786543, 0.3840000182390213, 0.0, 0.0, 0.0, 0.0, 0.0, 1.6466915248637166E9, 0.0, 2022-03-07 14:18:44.863
46.0, -11.567510562948883, 15.333589818328619, 29.03284335602075, -2.417845321353525, -0.7520000357180834, 0.5280000250786543, 0.3840000182390213, 0.0, 0.0, 0.0, 0.0, 0.0, 1.6466915248637166E9, 0.0, 2022-03-07 14:18:44.863
47.0, -65.57540582306683, 62.620884858071804, -2.8834628658369184, 25.246194650884718, -0.7520000357180834, 0.5280000250786543, 0.3840000182390213, 0.0, 0.0, 0.0, 0.0, 0.0, 1.6466915248793757E9, 0.0, 2022-03-07 14:18:44.879
47.0, -62.6582838576287, 66.61135811079293, -6.769218919798732, 30.78872638521716, -0.7520000357180834, 0.5280000250786543, 0.3840000182390213, 0.0, 0.0, 0.0, 0.0, 0.0, 1.6466915248793757E9, 0.0, 2022-03-07 14:18:44.879
48.0, -18.213312784209847, 13.183147343806922, 25.835228893905878, 5.465863785240799, -0.7520000357180834, 0.5280000250786543, 0.3840000182390213, 0.0, 0.0, 0.0, 0.0, 0.0, 1.6466915248801763E9, 0.0, 2022-03-07 14:18:44.880
48.0, -51.95843008439988, 45.308887963183224, 18.392827982082963, 17.07825314765796, -0.7520000357180834, 0.5280000250786543, 0.3840000182390213, 0.0, 0.0, 0.0, 0.0, 0.0, 1.6466915248801763E9, 0.0, 2022-03-07 14:18:44.880
49.0, -69.4798613768071, 74.79051931388676, -10.733512872830033, 35.64685642765835, -0.7520000357180834, 0.5280000250786543, 0.3840000182390213, 0.0, 0.0, 0.0, 0.0, 0.0, 1.6466915248937595E9, 0.0, 2022-03-07 14:18:44.893
49.0, -24.470165410079062, 27.80241627059877, 14.129342032596469, 11.748895710799843, -0.7520000357180834, 0.5280000250786543, 0.3840000182390213, 0.0, 0.0, 0.0, 0.0, 0.0, 1.6466915248937595E9, 0.0, 2022-03-07 14:18:44.893
50.0, -23.883001117035747, 21.949472839944065, 28.13526736665517, 6.071727578062564, -0.7520000357180834, 0.5280000250786543, 0.49600002355873585, 0.0, 0.0, 0.0, 0.0, 0.0, 1.646691524909417E9, 0.0, 2022-03-07 14:18:44.909
50.0, -71.95567514747381, 75.45996140595526, -8.493312799371779, 33.46275485353544, -0.7520000357180834, 0.5280000250786543, 0.49600002355873585, 0.0, 0.0, 0.0, 0.0, 0.0, 1.646691524909417E9, 0.0, 2022-03-07 14:18:44.909
51.0, -44.75912266969681, 47.04420154262334, 3.062978063710034, 23.451042672153562, -0.7520000357180834, 0.49600002355873585, 0.49600002355873585, 0.0, 0.0, 0.0, 0.0, 0.0, 1.6466915249101176E9, 0.0, 2022-03-07 14:18:44.910
51.0, -13.003632145933807, 3.3584301602095366, 35.974097673781216, 2.3542670221067965, -0.7520000357180834, 0.49600002355873585, 0.49600002355873585, 0.0, 0.0, 0.0, 0.0, 0.0, 1.6466915249101176E9, 0.0, 2022-03-07 14:18:44.910
52.0, -63.14821075182408, 58.88472480233759, 5.901562130078673, 27.374197725672275, -0.7680000364780426, 0.49600002355873585, 0.49600002355873585, 0.0, 0.0, 0.0, 0.0, 0.0, 1.6466915249236746E9, 0.0, 2022-03-07 14:18:44.923
52.0, -61.326879473403096, 68.40651008952409, -13.160707944072783, 32.71103496244177, -0.7680000364780426, 0.49600002355873585, 0.49600002355873585, 0.0, 0.0, 0.0, 0.0, 0.0, 1.6466915249236746E9, 0.0, 2022-03-07 14:18:44.923
53.0, -12.326710253953934, 4.753412843681872, 28.352181564085186, 3.906325503718108, -0.7680000364780426, 0.49600002355873585, 0.49600002355873585, 0.0, 0.0, 0.0, 0.0, 0.0, 1.6466915249394107E9, 0.0, 2022-03-07 14:18:44.939
53.0, -46.124186153523624, 41.78964210487902, 16.601415903307498, 15.859045762103051, -0.7680000364780426, 0.49600002355873585, 0.49600002355873585, 0.0, 0.0, 0.0, 0.0, 0.0, 1.6466915249394107E9, 0.0, 2022-03-07 14:18:44.939
54.0, -68.48504798859358, 77.08307798672467, -13.643155038356781, 32.610057663638145, -0.7680000364780426, 0.49600002355873585, 0.49600002355873585, 0.0, 0.0, 0.0, 0.0, 0.0, 1.6466915249401672E9, 0.0, 2022-03-07 14:18:44.940
54.0, -24.219592113047838, 27.443385874852538, 6.83279721904546, 12.556714101228863, -0.7680000364780426, 0.49600002355873585, 0.49600002355873585, 0.0, 0.0, 0.0, 0.0, 0.0, 1.6466915249401672E9, 0.0, 2022-03-07 14:18:44.940
55.0, -28.333482064306736, 18.217052684165537, 30.050096143968403, 1.7259638295508921, -0.7680000364780426, 0.49600002355873585, 0.49600002355873585, 0.0, 0.0, 0.0, 0.0, 0.0, 1.6466915249536848E9, 0.0, 2022-03-07 14:18:44.953
55.0, -67.39673710148782, 74.21457472071052, -10.224886478856206, 26.614998034667224, -0.7680000364780426, 0.49600002355873585, 0.49600002355873585, 0.0, 0.0, 0.0, 0.0, 0.0, 1.6466915249536848E9, 0.0, 2022-03-07 14:18:44.953
56.0, -41.03044241387397, 48.58504032436758, -3.0816775634884834, 19.793420515488833, -0.7680000364780426, 0.49600002355873585, 0.49600002355873585, 0.0, 0.0, 0.0, 0.0, 0.0, 1.6466915249694667E9, 0.0, 2022-03-07 14:18:44.969
56.0, -11.025225069373846, 10.209926879033446, 30.52132353838533, -6.273682175669819, -0.7680000364780426, 0.49600002355873585, 0.49600002355873585, 0.0, 0.0, 0.0, 0.0, 0.0, 1.6466915249694667E9, 0.0, 2022-03-07 14:18:44.969
57.0, -62.0299806650728, 66.61883791070431, 2.5169526701793075, 22.987295077648014, -0.7680000364780426, 0.49600002355873585, 0.49600002355873585, 0.0, 0.0, 0.0, 0.0, 0.0, 1.6466915249701335E9, 0.0, 2022-03-07 14:18:44.970
57.0, -58.44715650752187, 71.22265475615859, -12.745579048991203, 27.318099226336926, -0.7680000364780426, 0.49600002355873585, 0.49600002355873585, 0.0, 0.0, 0.0, 0.0, 0.0, 1.6466915249701335E9, 0.0, 2022-03-07 14:18:44.970
58.0, -12.816637148149312, 11.320677165873349, 25.951165792532265, 1.0303424377925694, -0.7680000364780426, 0.49600002355873585, 0.49600002355873585, 0.0, 0.0, 0.0, 0.0, 0.0, 1.6466915249836793E9, 0.0, 2022-03-07 14:18:44.983
58.0, -51.23288949299604, 46.15410535316914, 12.87647554744035, 14.224709481466562, -0.7680000364780426, 0.49600002355873585, 0.49600002355873585, 0.0, 0.0, 0.0, 0.0, 0.0, 1.6466915249836793E9, 0.0, 2022-03-07 14:18:44.983
59.0, -68.2531741913408, 86.06257778033614, -17.73086568992585, 30.238961091730744, -0.7680000364780426, 0.49600002355873585, 0.49600002355873585, 0.0, 0.0, 0.0, 0.0, 0.0, 1.6466915249994447E9, 0.0, 2022-03-07 14:18:44.999
59.0, -27.574282373301685, 34.58285489026457, 10.520338575355709, 9.0599076426588, -0.7680000364780426, 0.49600002355873585, 0.49600002355873585, 0.0, 0.0, 0.0, 0.0, 0.0, 1.6466915249994447E9, 0.0, 2022-03-07 14:18:44.999
60.0, -28.714951859787107, 21.35856864694506, 28.54291646182537, 5.1704116887412965, -0.7680000364780426, 0.49600002355873585, 0.5600000265985727, 0.0, 0.0, 0.0, 0.0, 0.0, 1.6466915250001285E9, 0.0, 2022-03-07 14:18:45.000
60.0, -70.22784136794508, 82.18430152628571, -12.255652154795825, 27.96884181862697, -0.7680000364780426, 0.49600002355873585, 0.5600000265985727, 0.0, 0.0, 0.0, 0.0, 0.0, 1.6466915250001285E9, 0.0, 2022-03-07 14:18:45.000
61.0, -44.36643317434937, 55.67215074039996, -5.490173134952784, 20.870511702727526, -0.7680000364780426, 0.6080000288784504, 0.5600000265985727, 0.0, 0.0, 0.0, 0.0, 0.0, 1.6466915250136652E9, 0.0, 2022-03-07 14:18:45.013
61.0, -13.220546343363822, 3.784778755158186, 31.628333925269544, 2.971350514795631, -0.7680000364780426, 0.6080000288784504, 0.5600000265985727, 0.0, 0.0, 0.0, 0.0, 0.0, 1.6466915250136652E9, 0.0, 2022-03-07 14:18:45.013
62.0, -62.38527116086334, 67.0676259053871, 1.1070103868842125, 23.828772567678243, -0.8800000417977571, 0.6080000288784504, 0.5600000265985727, 0.0, 0.0, 0.0, 0.0, 0.0, 1.6466915250294857E9, 0.0, 2022-03-07 14:18:45.029
62.0, -60.66491718124598, 74.30059241969138, -10.808310871943831, 30.541892988141626, -0.8800000417977571, 0.6080000288784504, 0.5600000265985727, 0.0, 0.0, 0.0, 0.0, 0.0, 1.6466915250294857E9, 0.0, 2022-03-07 14:18:45.029
63.0, -20.345055758953094, 10.520338575355709, 28.752350859344006, 5.7762754815630615, -0.8800000417977571, 0.6080000288784504, 0.5600000265985727, 0.0, 0.0, 0.0, 0.0, 0.0, 1.64669152503011E9, 0.0, 2022-03-07 14:18:45.030
63.0, -54.46042315475643, 41.83826080430299, 23.464132321998477, 15.309280468616635, -0.8800000417977571, 0.6080000288784504, 0.5600000265985727, 0.0, 0.0, 0.0, 0.0, 0.0, 1.64669152503011E9, 0.0, 2022-03-07 14:18:45.030
64.0, -71.54428615234792, 82.33015762455761, -11.118722568266094, 32.29590606736019, -0.8800000417977571, 0.6080000288784504, 0.5600000265985727, 0.0, 0.0, 0.0, 0.0, 0.0, 1.6466915250437903E9, 0.0, 2022-03-07 14:18:45.043
64.0, -29.664886448532343, 24.99375140387565, 15.602862615138292, 17.743955339770764, -0.8800000417977571, 0.6080000288784504, 0.5600000265985727, 0.0, 0.0, 0.0, 0.0, 0.0, 1.6466915250437903E9, 0.0, 2022-03-07 14:18:45.043
65.0, -32.13322041928768, 15.68140051420778, 36.99883026164025, 10.383832226973027, -0.8800000417977571, 0.6080000288784504, 0.5600000265985727, 0.0, 0.0, 0.0, 0.0, 0.0, 1.6466915250594244E9, 0.0, 2022-03-07 14:18:45.059
65.0, -76.97088098805398, 68.52618688810617, -6.974913417361677, 32.35574446665123, -0.8800000417977571, 0.6080000288784504, 0.5600000265985727, 0.0, 0.0, 0.0, 0.0, 0.0, 1.6466915250594244E9, 0.0, 2022-03-07 14:18:45.059
66.0, -44.097160377539694, 44.97977676708251, 0.7180607914924622, 19.438130019698292, -0.8800000417977571, 0.6080000288784504, 0.5600000265985727, 0.0, 0.0, 0.0, 0.0, 0.0, 1.646691525060121E9, 0.0, 2022-03-07 14:18:45.060
66.0, -15.569203515537083, -9.144055391661823, 40.20766442362219, 5.727656782139093, -0.8800000417977571, 0.6080000288784504, 0.5600000265985727, 0.0, 0.0, 0.0, 0.0, 0.0, 1.646691525060121E9, 0.0, 2022-03-07 14:18:45.060
67.0, -62.90511725470424, 58.89968440216035, 2.8273643665015697, 23.466002271976322, -0.8800000417977571, 0.6080000288784504, 0.5600000265985727, 0.0, 0.0, 0.0, 0.0, 0.0, 1.6466915250736692E9, 0.0, 2022-03-07 14:18:45.073
67.0, -57.53836081828922, 65.78484022058547, -12.547364351339638, 26.72345513338223, -0.8800000417977571, 0.6080000288784504, 0.5600000265985727, 0.0, 0.0, 0.0, 0.0, 0.0, 1.6466915250736692E9, 0.0, 2022-03-07 14:18:45.073
68.0, -14.91472102329135, 9.297391289845109, 25.74547129496932, 3.6744517064653337, -0.8800000417977571, 0.6080000288784504, 0.5600000265985727, 0.0, 0.0, 0.0, 0.0, 0.0, 1.6466915250896428E9, 0.0, 2022-03-07 14:18:45.089
68.0, -45.88857245631516, 44.882539368234575, 14.10316273290664, 11.741415910888463, -0.8800000417977571, 0.6080000288784504, 0.5600000265985727, 0.0, 0.0, 0.0, 0.0, 0.0, 1.6466915250896428E9, 0.0, 2022-03-07 14:18:45.089
69.0, -60.5115812830627, 80.94639464095235, -24.93391300458461, 23.52210077131167, -0.8800000417977571, 0.6080000288784504, 0.5600000265985727, 0.0, 0.0, 0.0, 0.0, 0.0, 1.646691525090159E9, 0.0, 2022-03-07 14:18:45.090
69.0, -20.640507855452597, 29.597568249329925, 7.535898410715163, 2.421585221309215, -0.8800000417977571, 0.6080000288784504, 0.5600000265985727, 0.0, 0.0, 0.0, 0.0, 0.0, 1.646691525090159E9, 0.0, 2022-03-07 14:18:45.090
70.0, -31.624594025313854, 25.521077297627926, 23.939099616371095, 2.2009311239235103, -0.8800000417977571, 0.6080000288784504, 0.3680000174790621, 0.0, 0.0, 0.0, 0.0, 0.0, 1.6466915251038733E9, 0.0, 2022-03-07 14:18:45.103
70.0, -63.95228924229741, 77.28503258433193, -13.994705634191632, 25.294813350308686, -0.8800000417977571, 0.6080000288784504, 0.3680000174790621, 0.0, 0.0, 0.0, 0.0, 0.0, 1.6466915251038733E9, 0.0, 2022-03-07 14:18:45.103
71.0, -41.96915730275214, 49.61351281218231, -6.84401691891253, 20.193589810747653, -0.8800000417977571, 0.6080000288784504, 0.3680000174790621, 0.0, 0.0, 0.0, 0.0, 0.0, 1.6466915251194298E9, 0.0, 2022-03-07 14:18:45.119
71.0, -17.786964189261198, 9.23755289055407, 25.438799498602748, 5.996929578948766, -0.8800000417977571, 0.6080000288784504, 0.3680000174790621, 0.0, 0.0, 0.0, 0.0, 0.0, 1.6466915251194298E9, 0.0, 2022-03-07 14:18:45.119
72.0, -68.02130039408803, 66.46924191247672, -2.172881874255836, 30.227741391863674, -0.7840000372380018, 0.6080000288784504, 0.3680000174790621, 0.0, 0.0, 0.0, 0.0, 0.0, 1.646691525120123E9, 0.0, 2022-03-07 14:18:45.120
72.0, -54.02285485994071, 70.07450546976179, -13.901208135299385, 21.700769492890686, -0.7840000372380018, 0.6080000288784504, 0.3680000174790621, 0.0, 0.0, 0.0, 0.0, 0.0, 1.646691525120123E9, 0.0, 2022-03-07 14:18:45.120
73.0, -20.378714858554304, 16.335883006453514, 24.328049211762846, 6.63271257141605, -0.7840000372380018, 0.6080000288784504, 0.3680000174790621, 0.0, 0.0, 0.0, 0.0, 0.0, 1.6466915251500554E9, 0.0, 2022-03-07 14:18:45.150
73.0, -58.29756050929427, 47.97169673163444, 15.561723715625703, 18.005748336669058, -0.7840000372380018, 0.6080000288784504, 0.3680000174790621, 0.0, 0.0, 0.0, 0.0, 0.0, 1.6466915251500554E9, 0.0, 2022-03-07 14:18:45.150
74.0, -61.1772834751755, 77.6291033802554, -17.020284698344767, 30.126764093060046, -0.7840000372380018, 0.6080000288784504, 0.3680000174790621, 0.0, 0.0, 0.0, 0.0, 0.0, 1.6466915251507614E9, 0.0, 2022-03-07 14:18:45.150
74.0, -33.04201610852033, 25.472458598203957, 13.459899940527976, 18.058106936048716, -0.7840000372380018, 0.6080000288784504, 0.3680000174790621, 0.0, 0.0, 0.0, 0.0, 0.0, 1.6466915251507614E9, 0.0, 2022-03-07 14:18:45.150
75.0, -41.08654091320932, 24.784317006357014, 31.02247013244778, 13.323393592145294, -0.7840000372380018, 0.6080000288784504, 0.3680000174790621, 0.0, 0.0, 0.0, 0.0, 0.0, 1.6466915251515317E9, 0.0, 2022-03-07 14:18:45.151
75.0, -70.23158126790076, 77.58048468083143, -15.737499013543129, 32.31460556713864, -0.7840000372380018, 0.6080000288784504, 0.3680000174790621, 0.0, 0.0, 0.0, 0.0, 0.0, 1.6466915251515317E9, 0.0, 2022-03-07 14:18:45.151
76.0, -42.66103879455477, 49.344240015372634, -4.177468250505626, 21.98874178947881, -0.7840000372380018, 0.6080000288784504, 0.3680000174790621, 0.0, 0.0, 0.0, 0.0, 0.0, 1.646691525163756E9, 0.0, 2022-03-07 14:18:45.163
76.0, -25.74921119492501, 1.1144901867955923, 32.93355900980532, 6.9842631672509015, -0.7840000372380018, 0.6080000288784504, 0.3680000174790621, 0.0, 0.0, 0.0, 0.0, 0.0, 1.646691525163756E9, 0.0, 2022-03-07 14:18:45.163
77.0, -66.82079250831157, 58.940823301672935, 7.9061485063284636, 27.048826429527253, -0.7840000372380018, 0.6080000288784504, 0.3680000174790621, 0.0, 0.0, 0.0, 0.0, 0.0, 1.6466915251793978E9, 0.0, 2022-03-07 14:18:45.179
77.0, -49.736929510720074, 58.71642930433154, -8.975759893655777, 24.228941862937063, -0.7840000372380018, 0.6080000288784504, 0.3680000174790621, 0.0, 0.0, 0.0, 0.0, 0.0, 1.6466915251793978E9, 0.0, 2022-03-07 14:18:45.179
78.0, -9.24877259042114, 10.924247770570219, 24.301869912073016, -0.8508272399194539, -0.7840000372380018, 0.6080000288784504, 0.3680000174790621, 0.0, 0.0, 0.0, 0.0, 0.0, 1.6466915251801276E9, 0.0, 2022-03-07 14:18:45.180
78.0, -43.655852182768285, 49.52375521324575, 14.47715272847563, 8.319407451432198, -0.7840000372380018, 0.6080000288784504, 0.3680000174790621, 0.0, 0.0, 0.0, 0.0, 0.0, 1.6466915251801276E9, 0.0, 2022-03-07 14:18:45.180
79.0, -56.184517034329474, 79.30083866044879, -22.768510930240154, 19.827079615090042, -0.7840000372380018, 0.6080000288784504, 0.3680000174790621, 0.0, 0.0, 0.0, 0.0, 0.0, 1.646691525193725E9, 0.0, 2022-03-07 14:18:45.193
79.0, -23.441692922264338, 32.26411691773683, 8.04452480468899, 6.23628317611292, -0.7840000372380018, 0.6080000288784504, 0.3680000174790621, 0.0, 0.0, 0.0, 0.0, 0.0, 1.646691525193725E9, 0.0, 2022-03-07 14:18:45.193
80.0, -30.476444738917053, 20.232858760282397, 28.845848358236253, 5.42472488572821, -0.7840000372380018, 0.6080000288784504, 0.144000006839633, 0.0, 0.0, 0.0, 0.0, 0.0, 1.646691525209551E9, 0.0, 2022-03-07 14:18:45.209
80.0, -63.8812311431393, 81.65697563253343, -10.550257775001228, 27.067525929305702, -0.7840000372380018, 0.6080000288784504, 0.144000006839633, 0.0, 0.0, 0.0, 0.0, 0.0, 1.646691525209551E9, 0.0, 2022-03-07 14:18:45.209
81.0, -43.75308958161622, 57.777714415453374, -9.776098484173417, 26.476621736306697, -0.7840000372380018, 0.5440000258386135, 0.144000006839633, 0.0, 0.0, 0.0, 0.0, 0.0, 1.6466915252101376E9, 0.0, 2022-03-07 14:18:45.210
81.0, -21.859715241007507, 14.10690263286233, 24.788056906312704, 8.566240848507732, -0.7840000372380018, 0.5440000258386135, 0.144000006839633, 0.0, 0.0, 0.0, 0.0, 0.0, 1.6466915252101376E9, 0.0, 2022-03-07 14:18:45.210
82.0, -82.14690252672881, 75.10093101020902, -9.035598292946815, 37.93567520054057, -0.7680000364780426, 0.5440000258386135, 0.144000006839633, 0.0, 0.0, 0.0, 0.0, 0.0, 1.6466915252237566E9, 0.0, 2022-03-07 14:18:45.223
82.0, -74.79799911379814, 91.6350287143141, -33.79747589956969, 43.811058030929416, -0.7680000364780426, 0.5440000258386135, 0.144000006839633, 0.0, 0.0, 0.0, 0.0, 0.0, 1.6466915252237566E9, 0.0, 2022-03-07 14:18:45.223
83.0, -13.171927643939853, 29.949118845164776, 2.894682565703988, 4.560807995963842, -0.7680000364780426, 0.5440000258386135, 0.144000006839633, 0.0, 0.0, 0.0, 0.0, 0.0, 1.6466915252393956E9, 0.0, 2022-03-07 14:18:45.239
83.0, -55.95638313703239, 61.742008368484676, 1.9858868764713407, 15.978722560685128, -0.7680000364780426, 0.5440000258386135, 0.144000006839633, 0.0, 0.0, 0.0, 0.0, 0.0, 1.6466915252393956E9, 0.0, 2022-03-07 14:18:45.239
84.0, -78.24618687294424, 85.55021148640662, -28.498037662357092, 39.64480948029086, -0.7680000364780426, 0.5440000258386135, 0.144000006839633, 0.0, 0.0, 0.0, 0.0, 0.0, 1.6466915252401345E9, 0.0, 2022-03-07 14:18:45.240
84.0, -28.838368558324873, 31.561015726067126, 1.4623008826747537, 18.510634830687195, -0.7680000364780426, 0.5440000258386135, 0.144000006839633, 0.0, 0.0, 0.0, 0.0, 0.0, 1.6466915252401345E9, 0.0, 2022-03-07 14:18:45.240
85.0, -40.5367756197229, 29.141300454735756, 19.503578268922865, 10.933597520459443, -0.7680000364780426, 0.5440000258386135, 0.144000006839633, 0.0, 0.0, 0.0, 0.0, 0.0, 1.646691525253762E9, 0.0, 2022-03-07 14:18:45.253
85.0, -75.17946890927851, 83.83359740674496, -22.89566752873361, 37.1839553094469, -0.7680000364780426, 0.5440000258386135, 0.144000006839633, 0.0, 0.0, 0.0, 0.0, 0.0, 1.646691525253762E9, 0.0, 2022-03-07 14:18:45.253
86.0, -46.849726744927466, 58.72390910424292, -8.328757201321423, 20.70595610467717, -0.7680000364780426, 0.5440000258386135, 0.144000006839633, 0.0, 0.0, 0.0, 0.0, 0.0, 1.6466915252694016E9, 0.0, 2022-03-07 14:18:45.269
86.0, -4.2073874501511455, 11.459053464233875, 30.60360133741051, -7.982816455420107, -0.7680000364780426, 0.5440000258386135, 0.144000006839633, 0.0, 0.0, 0.0, 0.0, 0.0, 1.6466915252694016E9, 0.0, 2022-03-07 14:18:45.269
87.0, -52.37729887943715, 73.4778144294396, -6.309211225248873, 10.383832226973027, -0.7680000364780426, 0.5440000258386135, 0.144000006839633, 0.0, 0.0, 0.0, 0.0, 0.0, 1.6466915252701073E9, 0.0, 2022-03-07 14:18:45.270
87.0, -38.835121139883995, 73.05520573444664, -20.408634058199823, 13.955436684656888, -0.7680000364780426, 0.5440000258386135, 0.144000006839633, 0.0, 0.0, 0.0, 0.0, 0.0, 1.6466915252701073E9, 0.0, 2022-03-07 14:18:45.270
88.0, 7.0609311163425446, 26.721585183404386, 10.310904177837074, -15.589772965293378, -0.7680000364780426, 0.5440000258386135, 0.144000006839633, 0.0, 0.0, 0.0, 0.0, 0.0, 1.64669152528375E9, 0.0, 2022-03-07 14:18:45.283
88.0, -34.57911499030888, 66.85819150786847, 0.6395228924229741, -5.484563285019249, -0.7680000364780426, 0.5440000258386135, 0.144000006839633, 0.0, 0.0, 0.0, 0.0, 0.0, 1.64669152528375E9, 0.0, 2022-03-07 14:18:45.283
89.0, -57.55706031806767, 96.57169665582478, -32.18557901866734, 18.458276231307536, -0.7680000364780426, 0.5440000258386135, 0.144000006839633, 0.0, 0.0, 0.0, 0.0, 0.0, 1.6466915252993736E9, 0.0, 2022-03-07 14:18:45.299
89.0, -22.90314732864499, 49.03756821900606, 0.845217389985919, 4.171858400572091, -0.7680000364780426, 0.5440000258386135, 0.144000006839633, 0.0, 0.0, 0.0, 0.0, 0.0, 1.6466915252993736E9, 0.0, 2022-03-07 14:18:45.299
90.0, -32.11078101955354, 46.68517114687711, 14.952120022848248, 3.502416308503598, -0.7680000364780426, 0.5440000258386135, 0.12800000607967377, 0.0, 0.0, 0.0, 0.0, 0.0, 1.6466915253001132E9, 0.0, 2022-03-07 14:18:45.300
90.0, -77.59544428065419, 94.57832997944206, -22.48801843356341, 34.04991914657876, -0.7680000364780426, 0.5440000258386135, 0.12800000607967377, 0.0, 0.0, 0.0, 0.0, 0.0, 1.6466915253001132E9, 0.0, 2022-03-07 14:18:45.300
91.0, -51.771435086615384, 61.46525577176362, -12.678260849788785, 27.695829121861607, -0.7680000364780426, 0.7040000334382057, 0.12800000607967377, 0.0, 0.0, 0.0, 0.0, 0.0, 1.646691525313687E9, 0.0, 2022-03-07 14:18:45.313
91.0, -15.939453611150384, 19.432520169764757, 24.866594805382192, 3.386479409877211, -0.7680000364780426, 0.7040000334382057, 0.12800000607967377, 0.0, 0.0, 0.0, 0.0, 0.0, 1.646691525313687E9, 0.0, 2022-03-07 14:18:45.313
92.0, -67.5126740001142, 71.81729884911329, -7.9098884062841535, 30.923362783621997, -0.6400000303983688, 0.7040000334382057, 0.12800000607967377, 0.0, 0.0, 0.0, 0.0, 0.0, 1.6466915253293843E9, 0.0, 2022-03-07 14:18:45.329
92.0, -66.42436311300844, 71.48818765301257, -21.27629084791988, 38.627556692343205, -0.6400000303983688, 0.7040000334382057, 0.12800000607967377, 0.0, 0.0, 0.0, 0.0, 0.0, 1.6466915253293843E9, 0.0, 2022-03-07 14:18:45.329
93.0, -20.767664453946054, 18.381608282215893, 18.92389377579093, 9.467556737829, -0.6400000303983688, 0.7040000334382057, 0.12800000607967377, 0.0, 0.0, 0.0, 0.0, 0.0, 1.6466915253301077E9, 0.0, 2022-03-07 14:18:45.330
93.0, -50.04734120704234, 50.60458630044013, 9.895775282755494, 19.44934971956536, -0.6400000303983688, 0.7040000334382057, 0.12800000607967377, 0.0, 0.0, 0.0, 0.0, 0.0, 1.6466915253301077E9, 0.0, 2022-03-07 14:18:45.330
94.0, -72.98414763528854, 75.11963050998747, -19.27170447167009, 42.655428944621235, -0.6400000303983688, 0.7040000334382057, 0.12800000607967377, 0.0, 0.0, 0.0, 0.0, 0.0, 1.6466915253436925E9, 0.0, 2022-03-07 14:18:45.343
94.0, -26.93101958092302, 28.023070367984474, 3.1115967631340027, 19.281054221559316, -0.6400000303983688, 0.7040000334382057, 0.12800000607967377, 0.0, 0.0, 0.0, 0.0, 0.0, 1.6466915253436925E9, 0.0, 2022-03-07 14:18:45.343
95.0, -173.5855864933692, 158.48761037224904, 107.29398982878774, -59.39148124633357, -0.6400000303983688, 0.7040000334382057, 0.12800000607967377, 0.0, 0.0, 0.0, 0.0, 0.0, 1.6466915253594096E9, 0.0, 2022-03-07 14:18:45.359
95.0, -13.49168909015134, -1.3108349344693124, 258.1989530408755, -210.8611693517305, -0.6400000303983688, 0.7040000334382057, 0.12800000607967377, 0.0, 0.0, 0.0, 0.0, 0.0, 1.6466915253594096E9, 0.0, 2022-03-07 14:18:45.359
96.0, 10.370742577128112, 8.151111953426152, 49.22082331683487, -32.75965366186574, -0.6400000303983688, 0.7040000334382057, 0.12800000607967377, 0.0, 0.0, 0.0, 0.0, 0.0, 1.6466915253600788E9, 0.0, 2022-03-07 14:18:45.360
96.0, -188.69665226433426, 196.52613282157108, -53.3945516673848, 72.43251239182428, -0.6400000303983688, 0.7040000334382057, 0.12800000607967377, 0.0, 0.0, 0.0, 0.0, 0.0, 1.6466915253600788E9, 0.0, 2022-03-07 14:18:45.360
97.0, -320.2214539060369, 328.03971476340666, -155.53121945727617, 176.59620595769957, -0.6400000303983688, 0.7040000334382057, 0.12800000607967377, 0.0, 0.0, 0.0, 0.0, 0.0, 1.6466915253737183E9, 0.0, 2022-03-07 14:18:45.373
97.0, -373.64592477306724, 384.8226157906465, -213.8773986659944, 228.5321966423653, -0.6400000303983688, 0.7040000334382057, 0.12800000607967377, 0.0, 0.0, 0.0, 0.0, 0.0, 1.6466915253737183E9, 0.0, 2022-03-07 14:18:45.373
98.0, -407.51071887183934, 414.4463633396663, -231.99347405135632, 258.4850553874858, -0.6400000303983688, 0.7040000334382057, 0.12800000607967377, 0.0, 0.0, 0.0, 0.0, 0.0, 1.64669152538949E9, 0.0, 2022-03-07 14:18:45.389
98.0, -454.7419154122472, 455.8358361492865, -275.22297763917595, 303.76776405097917, -0.6400000303983688, 0.7040000334382057, 0.12800000607967377, 0.0, 0.0, 0.0, 0.0, 0.0, 1.64669152538949E9, 0.0, 2022-03-07 14:18:45.389
99.0, -480.46494730748236, 486.30480108829215, -320.9769136970863, 345.7481410535984, -0.6400000303983688, 0.7040000334382057, 0.12800000607967377, 0.0, 0.0, 0.0, 0.0, 0.0, 1.6466915253900907E9, 0.0, 2022-03-07 14:18:45.390
99.0, -488.3336968142539, 492.7262093122117, -331.3513961741701, 354.1928351535462, -0.6400000303983688, 0.7040000334382057, 0.12800000607967377, 0.0, 0.0, 0.0, 0.0, 0.0, 1.6466915253900907E9, 0.0, 2022-03-07 14:18:45.390
100.0, -500.59682876896113, 492.4831158150919, -336.81165010947734, 369.91911446722224, -0.6400000303983688, 0.7040000334382057, -0.12800000607967377, 0.0, 0.0, 0.0, 0.0, 0.0, 1.646691525404406E9, 0.0, 2022-03-07 14:18:45.404
100.0, -517.6956513663754, 523.6177829462104, -376.37605174072087, 407.6547050201334, -0.6400000303983688, 0.7040000334382057, -0.12800000607967377, 0.0, 0.0, 0.0, 0.0, 0.0, 1.646691525404406E9, 0.0, 2022-03-07 14:18:45.404
0.0, -35.10083103412762, 38.99593683797866, 104.60687171062455, -78.76790291676298, -0.6400000303983688, 0.7040000334382057, -0.12800000607967377, 0.0, 0.0, 0.0, 0.0, 0.0, 1.6466915254050727E9, 0.0, 2022-03-07 14:18:45.405
1.0, -68.68887253617868, 66.04663321748376, 100.16013066330925, -72.34649469284341, -0.6400000303983688, 0.800000037997961, -0.12800000607967377, 0.0, 0.0, 0.0, 0.0, 0.0, 1.6466915254186924E9, 0.0, 2022-03-07 14:18:45.418
1.0, -73.22163128247485, 72.65503643918782, 71.5723354020156, -38.41064249491319, -0.6400000303983688, 0.800000037997961, -0.12800000607967377, 0.0, 0.0, 0.0, 0.0, 0.0, 1.6466915254186924E9, 0.0, 2022-03-07 14:18:45.418
2.0, -68.00821074424312, 76.35753739532083, 47.072250792291015, -20.403024208266288, -0.576000027358532, 0.800000037997961, -0.12800000607967377, 0.0, 0.0, 0.0, 0.0, 0.0, 1.6466915254343827E9, 0.0, 2022-03-07 14:18:45.434
2.0, -61.01459782710299, 62.561046458780766, 56.46687948098406, -28.481208112556487, -0.576000027358532, 0.800000037997961, -0.12800000607967377, 0.0, 0.0, 0.0, 0.0, 0.0, 1.6466915254343827E9, 0.0, 2022-03-07 14:18:45.434
3.0, -72.56340889027342, 70.61679096333683, 41.047271963674575, -8.611119647976011, -0.576000027358532, 0.800000037997961, -0.12800000607967377, 0.0, 0.0, 0.0, 0.0, 0.0, 1.6466915254351401E9, 0.0, 2022-03-07 14:18:45.435
3.0, -77.45145813236013, 80.30313184857368, 16.397591355722398, 12.119145806413144, -0.576000027358532, 0.800000037997961, -0.12800000607967377, 0.0, 0.0, 0.0, 0.0, 0.0, 1.6466915254351401E9, 0.0, 2022-03-07 14:18:45.435
4.0, -66.35143506387249, 65.94191601872444, 28.877637507859617, 5.877252780366689, -0.576000027358532, 0.800000037997961, -0.12800000607967377, 0.0, 0.0, 0.0, 0.0, 0.0, 1.6466915254487052E9, 0.0, 2022-03-07 14:18:45.448
4.0, -16.453689855057746, 60.627518181689084, 32.76339356182143, -41.74663325538859, -0.576000027358532, 0.800000037997961, -0.12800000607967377, 0.0, 0.0, 0.0, 0.0, 0.0, 1.6466915254487052E9, 0.0, 2022-03-07 14:18:45.448
5.0, -71.14224690711126, 70.38491716608405, 8.865432844962925, 27.699569021817297, -0.576000027358532, 0.800000037997961, -0.12800000607967377, 0.0, 0.0, 0.0, 0.0, 0.0, 1.6466915254644241E9, 0.0, 2022-03-07 14:18:45.464
5.0, -72.26047699386254, 67.05266630556434, 6.198884176556021, 31.64516347507015, -0.576000027358532, 0.800000037997961, -0.12800000607967377, 0.0, 0.0, 0.0, 0.0, 0.0, 1.6466915254644241E9, 0.0, 2022-03-07 14:18:45.464
6.0, -66.28785676462576, 57.67299721669406, 18.34607923263684, 19.288534021470696, -0.576000027358532, 0.800000037997961, -0.12800000607967377, 0.0, 0.0, 0.0, 0.0, 0.0, 1.6466915254651167E9, 0.0, 2022-03-07 14:18:45.465
6.0, -79.68043850595132, 65.63898412231356, 2.3056483226828277, 47.509819087106735, -0.576000027358532, 0.800000037997961, -0.12800000607967377, 0.0, 0.0, 0.0, 0.0, 0.0, 1.6466915254651167E9, 0.0, 2022-03-07 14:18:45.465
7.0, -81.36713338596746, 69.70799527410418, -6.752389369998127, 49.892135358881205, -0.576000027358532, 0.800000037997961, -0.12800000607967377, 0.0, 0.0, 0.0, 0.0, 0.0, 1.646691525495076E9, 0.0, 2022-03-07 14:18:45.495
7.0, -75.95923805003986, 68.1073180930689, 6.879545968491584, 36.54443241702393, -0.576000027358532, 0.800000037997961, -0.12800000607967377, 0.0, 0.0, 0.0, 0.0, 0.0, 1.646691525495076E9, 0.0, 2022-03-07 14:18:45.495
8.0, -83.67839155858383, 65.37719112541527, -4.190557900350541, 51.937860634643584, -0.576000027358532, 0.800000037997961, -0.12800000607967377, 0.0, 0.0, 0.0, 0.0, 0.0, 1.6466915254957871E9, 0.0, 2022-03-07 14:18:45.495
8.0, -87.95309720793739, 69.3676643781364, -15.8777452618815, 57.64494796702638, -0.576000027358532, 0.800000037997961, -0.12800000607967377, 0.0, 0.0, 0.0, 0.0, 0.0, 1.6466915254957871E9, 0.0, 2022-03-07 14:18:45.495
9.0, -81.56908798357472, 66.61883791070431, -8.24834935227409, 49.02821846911684, -0.576000027358532, 0.800000037997961, -0.12800000607967377, 0.0, 0.0, 0.0, 0.0, 0.0, 1.646691525496536E9, 0.0, 2022-03-07 14:18:45.496
9.0, -82.04779517790303, 65.53426692355424, -9.48999613756314, 49.64156206184998, -0.576000027358532, 0.800000037997961, -0.12800000607967377, 0.0, 0.0, 0.0, 0.0, 0.0, 1.646691525496536E9, 0.0, 2022-03-07 14:18:45.496
10.0, -88.78709489805624, 76.64550969190896, -23.462262372020632, 66.50477096205577, -0.576000027358532, 0.800000037997961, -0.17600000835955143, 0.0, 0.0, 0.0, 0.0, 0.0, 1.6466915255088515E9, 0.0, 2022-03-07 14:18:45.508
10.0, -80.42093869717792, 71.82103874906898, -17.422323943581432, 61.35118882311508, -0.576000027358532, 0.800000037997961, -0.17600000835955143, 0.0, 0.0, 0.0, 0.0, 0.0, 1.6466915255088515E9, 0.0, 2022-03-07 14:18:45.508
11.0, -76.81941503984854, 70.48963436484337, -7.414351662155241, 43.76243933150545, -0.576000027358532, 0.8160000387579203, -0.17600000835955143, 0.0, 0.0, 0.0, 0.0, 0.0, 1.6466915255246973E9, 0.0, 2022-03-07 14:18:45.524
11.0, -84.16083865286782, 75.0373527109623, -27.56867252336815, 59.511158044915646, -0.576000027358532, 0.8160000387579203, -0.17600000835955143, 0.0, 0.0, 0.0, 0.0, 0.0, 1.6466915255246973E9, 0.0, 2022-03-07 14:18:45.524
12.0, -75.49923035549, 75.71427460294217, -24.165363563690335, 58.47894565714523, -0.43200002051889896, 0.8160000387579203, -0.17600000835955143, 0.0, 0.0, 0.0, 0.0, 0.0, 1.6466915255251684E9, 0.0, 2022-03-07 14:18:45.525
12.0, -63.606348496396095, 70.08572516962886, -13.47298959037289, 38.04787219921127, -0.43200002051889896, 0.8160000387579203, -0.17600000835955143, 0.0, 0.0, 0.0, 0.0, 0.0, 1.6466915255251684E9, 0.0, 2022-03-07 14:18:45.525
13.0, -72.24177749408409, 71.24509415589273, -18.540554030332714, 45.482793311122805, -0.43200002051889896, 0.8160000387579203, -0.17600000835955143, 0.0, 0.0, 0.0, 0.0, 0.0, 1.6466915255389128E9, 0.0, 2022-03-07 14:18:45.538
13.0, -73.15057318331674, 72.737314238213, -27.778106920886785, 53.69187371386215, -0.43200002051889896, 0.8160000387579203, -0.17600000835955143, 0.0, 0.0, 0.0, 0.0, 0.0, 1.6466915255389128E9, 0.0, 2022-03-07 14:18:45.538
14.0, -63.965378892142326, 75.9274489004165, -24.427156560588628, 40.250673273112625, -0.43200002051889896, 0.8160000387579203, -0.17600000835955143, 0.0, 0.0, 0.0, 0.0, 0.0, 1.6466915255544374E9, 0.0, 2022-03-07 14:18:45.554
14.0, -82.14503257675096, 89.40230844076723, -39.59619078086689, 58.22463246015832, -0.43200002051889896, 0.8160000387579203, -0.17600000835955143, 0.0, 0.0, 0.0, 0.0, 0.0, 1.6466915255544374E9, 0.0, 2022-03-07 14:18:45.554
15.0, -96.2519352096133, 102.30496328789741, -64.80311648221686, 86.92462472012267, -0.43200002051889896, 0.8160000387579203, -0.17600000835955143, 0.0, 0.0, 0.0, 0.0, 0.0, 1.6466915255551524E9, 0.0, 2022-03-07 14:18:45.555
15.0, -95.53013451816514, 98.09009603783488, -58.20967286033556, 80.58175439527258, -0.43200002051889896, 0.8160000387579203, -0.17600000835955143, 0.0, 0.0, 0.0, 0.0, 0.0, 1.6466915255551524E9, 0.0, 2022-03-07 14:18:45.555
16.0, -89.11246619420126, 89.61548273824155, -42.37867634790018, 67.73893794743344, -0.43200002051889896, 0.8160000387579203, -0.17600000835955143, 0.0, 0.0, 0.0, 0.0, 0.0, 1.6466915255687869E9, 0.0, 2022-03-07 14:18:45.568
16.0, -106.44690248882398, 88.93482094630599, -43.2238937378861, 94.9504500250332, -0.43200002051889896, 0.8160000387579203, -0.17600000835955143, 0.0, 0.0, 0.0, 0.0, 0.0, 1.6466915255687869E9, 0.0, 2022-03-07 14:18:45.568
17.0, -103.57839922280982, 73.34317803103477, -37.68136200355366, 92.77008835086599, -0.43200002051889896, 0.8160000387579203, -0.17600000835955143, 0.0, 0.0, 0.0, 0.0, 0.0, 1.6466915255844316E9, 0.0, 2022-03-07 14:18:45.584
17.0, -99.83849926711991, 49.718230010941625, -4.717883794102818, 80.59297409513965, -0.43200002051889896, 0.8160000387579203, -0.17600000835955143, 0.0, 0.0, 0.0, 0.0, 0.0, 1.6466915255844316E9, 0.0, 2022-03-07 14:18:45.584
18.0, -91.7303961631842, 23.80446321796626, -2.178491724189371, 99.87215836672112, -0.43200002051889896, 0.8160000387579203, -0.17600000835955143, 0.0, 0.0, 0.0, 0.0, 0.0, 1.6466915255851705E9, 0.0, 2022-03-07 14:18:45.585
18.0, -96.2145362100564, 17.64484799094498, -11.184170817490667, 117.00464006373659, -0.43200002051889896, 0.8160000387579203, -0.17600000835955143, 0.0, 0.0, 0.0, 0.0, 0.0, 1.6466915255851705E9, 0.0, 2022-03-07 14:18:45.585
19.0, -110.94974203547463, -7.569557510316372, 26.940369330812246, 120.51266622217372, -0.43200002051889896, 0.8160000387579203, -0.17600000835955143, 0.0, 0.0, 0.0, 0.0, 0.0, 1.6466915255988083E9, 0.0, 2022-03-07 14:18:45.598
19.0, -139.06257000239566, 56.943716725334525, -6.894505568314344, 113.83694480126724, -0.43200002051889896, 0.8160000387579203, -0.17600000835955143, 0.0, 0.0, 0.0, 0.0, 0.0, 1.6466915255988083E9, 0.0, 2022-03-07 14:18:45.598
20.0, -148.25524409348145, 81.25680633727461, -31.899476672057062, 123.54198518628255, -0.43200002051889896, 0.8160000387579203, -0.33600001595914364, 0.0, 0.0, 0.0, 0.0, 0.0, 1.6466915256308024E9, 0.0, 2022-03-07 14:18:45.630
20.0, -114.28947269590572, 10.426841076463461, 12.538014601450413, 115.90884937671944, -0.43200002051889896, 0.8160000387579203, -0.33600001595914364, 0.0, 0.0, 0.0, 0.0, 0.0, 1.6466915256308024E9, 0.0, 2022-03-07 14:18:45.630
21.0, -117.13927646214142, 17.74582528974861, 23.424863372463733, 96.23697560979053, -0.43200002051889896, 0.8960000425577164, -0.33600001595914364, 0.0, 0.0, 0.0, 0.0, 0.0, 1.6466915256314874E9, 0.0, 2022-03-07 14:18:45.631
21.0, -124.80981127126142, 44.95733736734837, -3.378999609965831, 102.3255327376537, -0.43200002051889896, 0.8960000425577164, -0.33600001595914364, 0.0, 0.0, 0.0, 0.0, 0.0, 1.6466915256314874E9, 0.0, 2022-03-07 14:18:45.631
22.0, -102.9538359302096, 36.63232006598264, -2.301908422727138, 97.36642539640889, -0.33600001595914364, 0.8960000425577164, -0.33600001595914364, 0.0, 0.0, 0.0, 0.0, 0.0, 1.6466915256322632E9, 0.0, 2022-03-07 14:18:45.632
22.0, -101.48405524762347, 43.09860708937049, 6.400838774163276, 83.27074246341363, -0.33600001595914364, 0.8960000425577164, -0.33600001595914364, 0.0, 0.0, 0.0, 0.0, 0.0, 1.6466915256322632E9, 0.0, 2022-03-07 14:18:45.632
23.0, -105.62786439852789, 58.30878020916134, -8.66347824735567, 77.79926882823929, -0.33600001595914364, 0.8960000425577164, -0.33600001595914364, 0.0, 0.0, 0.0, 0.0, 0.0, 1.6466915256330323E9, 0.0, 2022-03-07 14:18:45.633
23.0, -97.08593289973214, 62.10851856414229, -17.392404743935913, 81.58030768344179, -0.33600001595914364, 0.8960000425577164, -0.33600001595914364, 0.0, 0.0, 0.0, 0.0, 0.0, 1.6466915256330323E9, 0.0, 2022-03-07 14:18:45.633
24.0, -90.87021917337552, 86.73201987240463, -38.45926119433716, 71.1646863068454, -0.33600001595914364, 0.8960000425577164, -0.33600001595914364, 0.0, 0.0, 0.0, 0.0, 0.0, 1.646691525643695E9, 0.0, 2022-03-07 14:18:45.643
24.0, -95.01776822423562, 94.98971897456795, -47.25550589011982, 68.74871093546972, -0.33600001595914364, 0.8960000425577164, -0.33600001595914364, 0.0, 0.0, 0.0, 0.0, 0.0, 1.646691525643695E9, 0.0, 2022-03-07 14:18:45.643
25.0, -90.84777977364138, 90.19890713132918, -49.121715968009084, 66.48233156232163, -0.33600001595914364, 0.8960000425577164, -0.33600001595914364, 0.0, 0.0, 0.0, 0.0, 0.0, 1.6466915256586971E9, 0.0, 2022-03-07 14:18:45.658
25.0, -78.75668321689591, 92.91781439911574, -45.841823706869036, 60.412473934236914, -0.33600001595914364, 0.8960000425577164, -0.33600001595914364, 0.0, 0.0, 0.0, 0.0, 0.0, 1.6466915256586971E9, 0.0, 2022-03-07 14:18:45.658
26.0, -81.67380518233404, 102.61911488417536, -67.22657165350392, 65.82036927016452, -0.33600001595914364, 0.8960000425577164, -0.33600001595914364, 0.0, 0.0, 0.0, 0.0, 0.0, 1.646691525674428E9, 0.0, 2022-03-07 14:18:45.674
26.0, -78.80904181627557, 105.67461314797401, -66.4561522626318, 67.38738735159859, -0.33600001595914364, 0.8960000425577164, -0.33600001595914364, 0.0, 0.0, 0.0, 0.0, 0.0, 1.646691525674428E9, 0.0, 2022-03-07 14:18:45.674
27.0, -66.22427846537903, 87.1508886674419, -60.51719113299623, 66.02232386777177, -0.33600001595914364, 0.8960000425577164, -0.33600001595914364, 0.0, 0.0, 0.0, 0.0, 0.0, 1.64669152567518E9, 0.0, 2022-03-07 14:18:45.675
27.0, -71.51249700272456, 83.28383211325854, -58.336829458829015, 73.36748738074675, -0.33600001595914364, 0.8960000425577164, -0.33600001595914364, 0.0, 0.0, 0.0, 0.0, 0.0, 1.64669152567518E9, 0.0, 2022-03-07 14:18:45.675
28.0, -81.38583288574591, 95.43102716933936, -67.03583675576374, 71.82290869904682, -0.33600001595914364, 0.8960000425577164, -0.33600001595914364, 0.0, 0.0, 0.0, 0.0, 0.0, 1.6466915256887217E9, 0.0, 2022-03-07 14:18:45.688
28.0, -76.54266244312748, 96.13786826096475, -67.37990755168721, 73.06455548433587, -0.33600001595914364, 0.8960000425577164, -0.33600001595914364, 0.0, 0.0, 0.0, 0.0, 0.0, 1.6466915256887217E9, 0.0, 2022-03-07 14:18:45.688
29.0, -82.35820687422529, 98.62864163145423, -68.70009223604575, 73.18049238296226, -0.33600001595914364, 0.8960000425577164, -0.33600001595914364, 0.0, 0.0, 0.0, 0.0, 0.0, 1.6466915257044055E9, 0.0, 2022-03-07 14:18:45.704
29.0, -88.37196600297466, 100.46867240965366, -62.678853307385, 76.32948814565316, -0.33600001595914364, 0.8960000425577164, -0.33600001595914364, 0.0, 0.0, 0.0, 0.0, 0.0, 1.6466915257044055E9, 0.0, 2022-03-07 14:18:45.704
30.0, -85.38752583833411, 98.93157352786511, -66.29907646449283, 79.55702180741355, -0.33600001595914364, 0.8960000425577164, -0.3840000182390213, 0.0, 0.0, 0.0, 0.0, 0.0, 1.646691525705136E9, 0.0, 2022-03-07 14:18:45.705
30.0, -79.78141580475494, 92.35682940576226, -61.32126962346956, 73.16179288318381, -0.33600001595914364, 0.8960000425577164, -0.3840000182390213, 0.0, 0.0, 0.0, 0.0, 0.0, 1.646691525705136E9, 0.0, 2022-03-07 14:18:45.705
31.0, -79.86743350373581, 92.43162740487605, -55.909634387586266, 64.37676788726822, -0.33600001595914364, 0.8320000395178795, -0.3840000182390213, 0.0, 0.0, 0.0, 0.0, 0.0, 1.6466915257186735E9, 0.0, 2022-03-07 14:18:45.718
31.0, -77.16348583577201, 94.40255468152463, -56.05175058590248, 67.5669025494717, -0.33600001595914364, 0.8320000395178795, -0.3840000182390213, 0.0, 0.0, 0.0, 0.0, 0.0, 1.6466915257186735E9, 0.0, 2022-03-07 14:18:45.718
32.0, -74.7213311647065, 91.97535961028188, -55.69272019015625, 60.47231233352795, -0.19200000911951065, 0.8320000395178795, -0.3840000182390213, 0.0, 0.0, 0.0, 0.0, 0.0, 1.6466915257344408E9, 0.0, 2022-03-07 14:18:45.734
32.0, -76.14623304782435, 93.8939282875508, -45.63986910926178, 50.46060015214607, -0.19200000911951065, 0.8320000395178795, -0.3840000182390213, 0.0, 0.0, 0.0, 0.0, 0.0, 1.6466915257344408E9, 0.0, 2022-03-07 14:18:45.734
33.0, -81.00062319030985, 93.25814529508352, -50.337183453608304, 57.521531268488616, -0.19200000911951065, 0.8320000395178795, -0.3840000182390213, 0.0, 0.0, 0.0, 0.0, 0.0, 1.646691525735176E9, 0.0, 2022-03-07 14:18:45.735
33.0, -67.61552124889567, 85.0415850924328, -39.5924508809112, 52.51754512777552, -0.19200000911951065, 0.8320000395178795, -0.3840000182390213, 0.0, 0.0, 0.0, 0.0, 0.0, 1.646691525735176E9, 0.0, 2022-03-07 14:18:45.735
34.0, -66.72168515948579, 83.73262010794133, -34.3678106428124, 44.716113820206374, -0.19200000911951065, 0.8320000395178795, -0.3840000182390213, 0.0, 0.0, 0.0, 0.0, 0.0, 1.646691525748817E9, 0.0, 2022-03-07 14:18:45.748
34.0, -65.42393987486139, 77.24763358477503, -32.479161165189, 45.60621000966057, -0.19200000911951065, 0.8320000395178795, -0.3840000182390213, 0.0, 0.0, 0.0, 0.0, 0.0, 1.646691525748817E9, 0.0, 2022-03-07 14:18:45.748
35.0, -54.297737506683916, 67.93902259506285, -22.37395148491487, 41.417522059287876, -0.19200000911951065, 0.8320000395178795, -0.3840000182390213, 0.0, 0.0, 0.0, 0.0, 0.0, 1.6466915257645702E9, 0.0, 2022-03-07 14:18:45.764
35.0, -47.880069182720035, 55.687110340222716, -16.180677158292383, 32.617537463549525, -0.19200000911951065, 0.8320000395178795, -0.3840000182390213, 0.0, 0.0, 0.0, 0.0, 0.0, 1.6466915257645702E9, 0.0, 2022-03-07 14:18:45.764
36.0, -52.5998229268007, 64.36741813737899, -17.56444014189765, 27.707048821728677, -0.19200000911951065, 0.8320000395178795, -0.3840000182390213, 0.0, 0.0, 0.0, 0.0, 0.0, 1.646691525765152E9, 0.0, 2022-03-07 14:18:45.765
36.0, -55.939553587231785, 63.021054153330624, -20.896691002417356, 30.35489799035713, -0.19200000911951065, 0.8320000395178795, -0.3840000182390213, 0.0, 0.0, 0.0, 0.0, 0.0, 1.646691525765152E9, 0.0, 2022-03-07 14:18:45.765
37.0, -42.38241624785587, 53.24121576920152, -13.678684087935835, 26.71223543351516, -0.19200000911951065, 0.8320000395178795, -0.3840000182390213, 0.0, 0.0, 0.0, 0.0, 0.0, 1.6466915257787104E9, 0.0, 2022-03-07 14:18:45.778
37.0, -47.01241239299998, 61.65225076954812, -11.172951117623597, 24.868464755360037, -0.19200000911951065, 0.8320000395178795, -0.3840000182390213, 0.0, 0.0, 0.0, 0.0, 0.0, 1.6466915257787104E9, 0.0, 2022-03-07 14:18:45.778
38.0, -54.79888410074636, 65.45572902448475, -23.48470177175477, 32.228587868157774, -0.19200000911951065, 0.8320000395178795, -0.3840000182390213, 0.0, 0.0, 0.0, 0.0, 0.0, 1.6466915257944162E9, 0.0, 2022-03-07 14:18:45.794
38.0, -42.629249644931406, 55.08498644735664, -17.396144643891603, 31.353451278526336, -0.19200000911951065, 0.8320000395178795, -0.3840000182390213, 0.0, 0.0, 0.0, 0.0, 0.0, 1.6466915257944162E9, 0.0, 2022-03-07 14:18:45.794
39.0, -46.21207380248234, 60.48166208341718, -16.902477849740535, 22.70306268101558, -0.19200000911951065, 0.8320000395178795, -0.3840000182390213, 0.0, 0.0, 0.0, 0.0, 0.0, 1.6466915257951214E9, 0.0, 2022-03-07 14:18:45.795
39.0, -54.94848009897396, 69.625717475079, -24.213982263114303, 29.54707959992811, -0.19200000911951065, 0.8320000395178795, -0.3840000182390213, 0.0, 0.0, 0.0, 0.0, 0.0, 1.6466915257951214E9, 0.0, 2022-03-07 14:18:45.795
40.0, -50.18384755542502, 59.5092880949378, -19.393251220230013, 32.202408568467945, -0.19200000911951065, 0.8320000395178795, -0.3840000182390213, 0.0, 0.0, 0.0, 0.0, 0.0, 1.6466915258087273E9, 0.0, 2022-03-07 14:18:45.808
40.0, -40.49750667018816, 60.31710648536682, -18.529334330465645, 20.522701006848365, -0.19200000911951065, 0.8320000395178795, -0.3840000182390213, 0.0, 0.0, 0.0, 0.0, 0.0, 1.6466915258087273E9, 0.0, 2022-03-07 14:18:45.808
41.0, -49.050657868850976, 67.45657550077885, -14.830573274288327, 21.783047291915864, -0.19200000911951065, 0.8960000425577164, -0.3840000182390213, 0.0, 0.0, 0.0, 0.0, 0.0, 1.6466915258244312E9, 0.0, 2022-03-07 14:18:45.824
41.0, -54.15188140841201, 66.23736811522394, -15.615952264983207, 28.095998417120427, -0.19200000911951065, 0.8960000425577164, -0.3840000182390213, 0.0, 0.0, 0.0, 0.0, 0.0, 1.6466915258244312E9, 0.0, 2022-03-07 14:18:45.824
42.0, -39.93652167683467, 51.86867248546332, -9.374059238936752, 18.33485953276977, -0.20800000987946987, 0.8960000425577164, -0.3840000182390213, 0.0, 0.0, 0.0, 0.0, 0.0, 1.646691525825147E9, 0.0, 2022-03-07 14:18:45.825
42.0, -40.684501667972654, 56.04988063592464, -3.502416308503598, 15.182123870123178, -0.20800000987946987, 0.8960000425577164, -0.3840000182390213, 0.0, 0.0, 0.0, 0.0, 0.0, 1.646691525825147E9, 0.0, 2022-03-07 14:18:45.825
43.0, -51.062724045012146, 53.43569056689739, -4.998376290779561, 25.18261635163799, -0.20800000987946987, 0.8960000425577164, -0.3840000182390213, 0.0, 0.0, 0.0, 0.0, 0.0, 1.6466915258386936E9, 0.0, 2022-03-07 14:18:45.838
43.0, -33.365517454687506, 41.88687950372696, -2.3505271221511066, 18.824786426965147, -0.20800000987946987, 0.8960000425577164, -0.3840000182390213, 0.0, 0.0, 0.0, 0.0, 0.0, 1.6466915258386936E9, 0.0, 2022-03-07 14:18:45.838
44.0, -39.15488258609548, 47.47429003752768, -0.4992766440846026, 13.51038858992979, -0.20800000987946987, 0.8960000425577164, -0.3840000182390213, 0.0, 0.0, 0.0, 0.0, 0.0, 1.6466915258544328E9, 0.0, 2022-03-07 14:18:45.854
44.0, -46.01011920487508, 54.580099953338504, 1.086440937127918, 16.105879159178585, -0.20800000987946987, 0.8960000425577164, -0.3840000182390213, 0.0, 0.0, 0.0, 0.0, 0.0, 1.6466915258544328E9, 0.0, 2022-03-07 14:18:45.854
45.0, -39.18106188578531, 46.932004543952644, -4.732843393925577, 18.824786426965147, -0.20800000987946987, 0.8960000425577164, -0.3840000182390213, 0.0, 0.0, 0.0, 0.0, 0.0, 1.6466915258551195E9, 0.0, 2022-03-07 14:18:45.855
45.0, -33.26828005583957, 46.60663324780762, 0.25618314696475863, 8.783155045937747, -0.20800000987946987, 0.8960000425577164, -0.3840000182390213, 0.0, 0.0, 0.0, 0.0, 0.0, 1.6466915258551195E9, 0.0, 2022-03-07 14:18:45.855
46.0, -45.33319731289521, 55.05880714766681, 0.6638322421349585, 8.483963049482554, -0.20800000987946987, 0.8960000425577164, -0.3840000182390213, 0.0, 0.0, 0.0, 0.0, 0.0, 1.646691525868674E9, 0.0, 2022-03-07 14:18:45.868
46.0, -50.677514349576086, 56.25931503344327, -8.689657547045499, 25.698722545523196, -0.20800000987946987, 0.8960000425577164, -0.3840000182390213, 0.0, 0.0, 0.0, 0.0, 0.0, 1.646691525868674E9, 0.0, 2022-03-07 14:18:45.868
47.0, -35.98718732362613, 46.36353975068778, -7.597606759984046, 22.254274686332792, -0.20800000987946987, 0.8960000425577164, -0.3840000182390213, 0.0, 0.0, 0.0, 0.0, 0.0, 1.6466915258844476E9, 0.0, 2022-03-07 14:18:45.884
47.0, -40.99117346433923, 55.15978444647044, -1.8419007281772792, 12.433297402691096, -0.20800000987946987, 0.8960000425577164, -0.3840000182390213, 0.0, 0.0, 0.0, 0.0, 0.0, 1.6466915258844476E9, 0.0, 2022-03-07 14:18:45.884
48.0, -49.065617468673736, 60.48166208341718, -11.000915719661862, 24.255121162626892, -0.20800000987946987, 0.8960000425577164, -0.3840000182390213, 0.0, 0.0, 0.0, 0.0, 0.0, 1.64669152588513E9, 0.0, 2022-03-07 14:18:45.885
48.0, -36.185402021277696, 49.91644470859319, -6.584093871992081, 16.954836449120194, -0.20800000987946987, 0.8960000425577164, -0.3840000182390213, 0.0, 0.0, 0.0, 0.0, 0.0, 1.64669152588513E9, 0.0, 2022-03-07 14:18:45.885
49.0, -35.833851425442845, 52.923324272967875, 2.1485725245438516, 6.423278173897415, -0.20800000987946987, 0.8960000425577164, -0.3840000182390213, 0.0, 0.0, 0.0, 0.0, 0.0, 1.6466915258987403E9, 0.0, 2022-03-07 14:18:45.898
49.0, -51.556390839163214, 60.39190448448062, 2.735736817587167, 17.781354339327663, -0.20800000987946987, 0.8960000425577164, -0.3840000182390213, 0.0, 0.0, 0.0, 0.0, 0.0, 1.6466915258987403E9, 0.0, 2022-03-07 14:18:45.898
50.0, -44.92180831776932, 52.137945282272995, -4.112020001281053, 22.901277378667146, -0.20800000987946987, 0.8960000425577164, -0.3680000174790621, 0.0, 0.0, 0.0, 0.0, 0.0, 1.6466915259307988E9, 0.0, 2022-03-07 14:18:45.930
50.0, -35.11953053390607, 50.3203539038077, -3.091027313377708, 11.517021913547069, -0.20800000987946987, 0.8960000425577164, -0.3680000174790621, 0.0, 0.0, 0.0, 0.0, 0.0, 1.6466915259307988E9, 0.0, 2022-03-07 14:18:45.930
51.0, -47.19192759087309, 55.87036543805152, -2.7058176179416478, 9.127225841861218, -0.20800000987946987, 0.8160000387579203, -0.3680000174790621, 0.0, 0.0, 0.0, 0.0, 0.0, 1.6466915259315143E9, 0.0, 2022-03-07 14:18:45.931
51.0, -48.41487487638369, 56.30419383291155, -10.331473627593368, 23.316406273748726, -0.20800000987946987, 0.8160000387579203, -0.3680000174790621, 0.0, 0.0, 0.0, 0.0, 0.0, 1.6466915259315143E9, 0.0, 2022-03-07 14:18:45.931
52.0, -30.983201182913035, 44.463670573197305, 0.03178914962336421, 14.766994975041598, -0.27200001291930676, 0.8160000387579203, -0.3680000174790621, 0.0, 0.0, 0.0, 0.0, 0.0, 1.6466915259322746E9, 0.0, 2022-03-07 14:18:45.932
52.0, -43.61658323323354, 52.912104573100805, 3.375259710010141, 10.181877629365772, -0.27200001291930676, 0.8160000387579203, -0.3680000174790621, 0.0, 0.0, 0.0, 0.0, 0.0, 1.6466915259322746E9, 0.0, 2022-03-07 14:18:45.932
53.0, -57.64494796702638, 60.87061167880893, 0.7797691407613456, 24.423416660632938, -0.27200001291930676, 0.8160000387579203, -0.3680000174790621, 0.0, 0.0, 0.0, 0.0, 0.0, 1.6466915259330258E9, 0.0, 2022-03-07 14:18:45.933
53.0, -37.808518602047116, 47.05168134253472, -6.946864167694002, 22.912497078534216, -0.27200001291930676, 0.8160000387579203, -0.3680000174790621, 0.0, 0.0, 0.0, 0.0, 0.0, 1.6466915259330258E9, 0.0, 2022-03-07 14:18:45.933
54.0, -42.46843394683674, 51.11321269441396, 7.216136964503676, 12.721269699279219, -0.27200001291930676, 0.8160000387579203, -0.3680000174790621, 0.0, 0.0, 0.0, 0.0, 0.0, 1.646691525943766E9, 0.0, 2022-03-07 14:18:45.943
54.0, -54.279038006905466, 61.14362437557429, 0.42073874501511455, 14.823093474376947, -0.27200001291930676, 0.8160000387579203, -0.3680000174790621, 0.0, 0.0, 0.0, 0.0, 0.0, 1.646691525943766E9, 0.0, 2022-03-07 14:18:45.943
55.0, -40.71442086761817, 50.454990302212536, -6.105386677663773, 22.471188883762807, -0.27200001291930676, 0.8160000387579203, -0.3680000174790621, 0.0, 0.0, 0.0, 0.0, 0.0, 1.6466915259588037E9, 0.0, 2022-03-07 14:18:45.958
55.0, -32.9242092599161, 71.34607145469636, -19.18007692275569, 14.849272774066776, -0.27200001291930676, 0.8160000387579203, -0.3680000174790621, 0.0, 0.0, 0.0, 0.0, 0.0, 1.6466915259588037E9, 0.0, 2022-03-07 14:18:45.958
56.0, -51.874282335396856, 128.66003827564418, -64.08879559068009, 17.403624443802983, -0.27200001291930676, 0.8160000387579203, -0.3680000174790621, 0.0, 0.0, 0.0, 0.0, 0.0, 1.6466915259745264E9, 0.0, 2022-03-07 14:18:45.974
56.0, -47.102169991936535, 74.93637541215867, -27.57615232327953, 25.231235051061958, -0.27200001291930676, 0.8160000387579203, -0.3680000174790621, 0.0, 0.0, 0.0, 0.0, 0.0, 1.6466915259745264E9, 0.0, 2022-03-07 14:18:45.974
57.0, -25.810919544193894, 63.013574353419244, -21.97004228970036, 11.558160813059658, -0.27200001291930676, 0.8160000387579203, -0.3680000174790621, 0.0, 0.0, 0.0, 0.0, 0.0, 1.6466915259752164E9, 0.0, 2022-03-07 14:18:45.975
57.0, -40.04871867550537, 70.37369746621698, -10.26789532834664, 6.65515197115019, -0.27200001291930676, 0.8160000387579203, -0.3680000174790621, 0.0, 0.0, 0.0, 0.0, 0.0, 1.6466915259752164E9, 0.0, 2022-03-07 14:18:45.975
58.0, -46.06621770421043, 77.95073477644473, -18.566733330022544, 12.67639089981094, -0.27200001291930676, 0.8160000387579203, -0.3680000174790621, 0.0, 0.0, 0.0, 0.0, 0.0, 1.6466915259887626E9, 0.0, 2022-03-07 14:18:45.988
58.0, -28.615844510961324, 66.45428231265396, -28.82901880843565, 16.008641760330647, -0.27200001291930676, 0.8160000387579203, -0.3680000174790621, 0.0, 0.0, 0.0, 0.0, 0.0, 1.6466915259887626E9, 0.0, 2022-03-07 14:18:45.988
59.0, -28.858938008081168, 50.107179606333375, 5.219030388165265, -1.00790303805843, -0.27200001291930676, 0.8160000387579203, -0.3680000174790621, 0.0, 0.0, 0.0, 0.0, 0.0, 1.646691526004383E9, 0.0, 2022-03-07 14:18:46.004
59.0, -45.512712510768324, 61.27078097406775, 4.893659092020243, 3.618353207129985, -0.27200001291930676, 0.8160000387579203, -0.3680000174790621, 0.0, 0.0, 0.0, 0.0, 0.0, 1.646691526004383E9, 0.0, 2022-03-07 14:18:46.004
60.0, -28.630804110784084, 44.25423617567867, -2.0625548255629838, 11.06823391886428, -0.27200001291930676, 0.8160000387579203, -0.5280000250786543, 0.0, 0.0, 0.0, 0.0, 0.0, 1.6466915260051532E9, 0.0, 2022-03-07 14:18:46.005
60.0, -24.109265064354986, 29.601308149285614, 24.516914159525186, 3.1920046121813357, -0.27200001291930676, 0.8160000387579203, -0.5280000250786543, 0.0, 0.0, 0.0, 0.0, 0.0, 1.6466915260051532E9, 0.0, 2022-03-07 14:18:46.005
61.0, -39.28577908454463, 36.378006868995726, 33.49641395313665, 0.8171681403182447, -0.27200001291930676, 0.7840000372380018, -0.5280000250786543, 0.0, 0.0, 0.0, 0.0, 0.0, 1.6466915260187266E9, 0.0, 2022-03-07 14:18:46.018
61.0, -40.50872637005523, 57.5458406182006, -4.272835699375719, 12.609072700608522, -0.27200001291930676, 0.7840000372380018, -0.5280000250786543, 0.0, 0.0, 0.0, 0.0, 0.0, 1.6466915260187266E9, 0.0, 2022-03-07 14:18:46.018
62.0, -21.52125429501757, 51.88737198524177, -9.42267793836072, 4.093320501502603, -0.41600001975893974, 0.7840000372380018, -0.5280000250786543, 0.0, 0.0, 0.0, 0.0, 0.0, 1.6466915260343735E9, 0.0, 2022-03-07 14:18:46.034
62.0, -42.16176215047017, 41.56898800749332, 29.453582101035863, 1.5389688317663968, -0.41600001975893974, 0.7840000372380018, -0.5280000250786543, 0.0, 0.0, 0.0, 0.0, 0.0, 1.6466915260343735E9, 0.0, 2022-03-07 14:18:46.034
63.0, -54.88864169968292, 43.640892582945526, 32.617537463549525, 14.325686780270189, -0.41600001975893974, 0.7840000372380018, -0.5280000250786543, 0.0, 0.0, 0.0, 0.0, 0.0, 1.646691526035139E9, 0.0, 2022-03-07 14:18:46.035
63.0, -33.11120425770059, 40.409619021229446, 6.688811070751399, 17.55322044203058, -0.41600001975893974, 0.7840000372380018, -0.5280000250786543, 0.0, 0.0, 0.0, 0.0, 0.0, 1.646691526035139E9, 0.0, 2022-03-07 14:18:46.035
64.0, -38.35454399557784, 38.58828774280846, 28.7729203091003, 4.545848396141082, -0.41600001975893974, 0.7840000372380018, -0.5280000250786543, 0.0, 0.0, 0.0, 0.0, 0.0, 1.6466915260487113E9, 0.0, 2022-03-07 14:18:46.048
64.0, -53.40390141727403, 47.650065335445106, 24.947002654429525, 8.495182749349624, -0.41600001975893974, 0.7840000372380018, -0.5280000250786543, 0.0, 0.0, 0.0, 0.0, 0.0, 1.6466915260487113E9, 0.0, 2022-03-07 14:18:46.048
65.0, -34.01252014702186, 52.58299337700009, -8.416644850280136, 22.445009584072977, -0.41600001975893974, 0.7840000372380018, -0.5280000250786543, 0.0, 0.0, 0.0, 0.0, 0.0, 1.6466915260643728E9, 0.0, 2022-03-07 14:18:46.064
65.0, -26.81321273231879, 48.70471712294966, -1.6324663306586444, 8.050134654622525, -0.41600001975893974, 0.7840000372380018, -0.5280000250786543, 0.0, 0.0, 0.0, 0.0, 0.0, 1.6466915260643728E9, 0.0, 2022-03-07 14:18:46.064
66.0, -47.17696799105033, 54.924170749261975, 8.536321648862213, 6.082947277929634, -0.41600001975893974, 0.7840000372380018, -0.5280000250786543, 0.0, 0.0, 0.0, 0.0, 0.0, 1.6466915260651357E9, 0.0, 2022-03-07 14:18:46.065
66.0, -44.46180062321946, 68.15219689253718, -20.410504008177668, 25.051719853188843, -0.41600001975893974, 0.7840000372380018, -0.5280000250786543, 0.0, 0.0, 0.0, 0.0, 0.0, 1.6466915260651357E9, 0.0, 2022-03-07 14:18:46.065
67.0, -26.091412040870637, 64.85360513161868, -27.426556325051934, 16.76036165142432, -0.41600001975893974, 0.7840000372380018, -0.5280000250786543, 0.0, 0.0, 0.0, 0.0, 0.0, 1.646691526078756E9, 0.0, 2022-03-07 14:18:46.078
67.0, -42.91722194151953, 44.097160377539694, 14.146171582397074, 7.83322045719251, -0.41600001975893974, 0.7840000372380018, -0.5280000250786543, 0.0, 0.0, 0.0, 0.0, 0.0, 1.646691526078756E9, 0.0, 2022-03-07 14:18:46.078
68.0, -51.26841854257509, 46.21768365241587, 9.804147733841091, 18.548033830244094, -0.41600001975893974, 0.7840000372380018, -0.5280000250786543, 0.0, 0.0, 0.0, 0.0, 0.0, 1.6466915261107485E9, 0.0, 2022-03-07 14:18:46.110
68.0, -29.016013806220144, 52.44461707863957, -14.493982278276235, 21.670850293245167, -0.41600001975893974, 0.7840000372380018, -0.5280000250786543, 0.0, 0.0, 0.0, 0.0, 0.0, 1.6466915261107485E9, 0.0, 2022-03-07 14:18:46.110
69.0, -37.053058810997754, 52.85600607376546, 7.406871862243861, 11.939630608540028, -0.41600001975893974, 0.7840000372380018, -0.5280000250786543, 0.0, 0.0, 0.0, 0.0, 0.0, 1.6466915261114712E9, 0.0, 2022-03-07 14:18:46.111
69.0, -55.24393219547346, 54.61375905293971, 13.551527489442378, 16.951096549164504, -0.41600001975893974, 0.7840000372380018, -0.5280000250786543, 0.0, 0.0, 0.0, 0.0, 0.0, 1.6466915261114712E9, 0.0, 2022-03-07 14:18:46.111
70.0, -35.88247012486681, 61.95144276600331, -30.85604458441958, 24.516914159525186, -0.41600001975893974, 0.7840000372380018, -0.6880000326782465, 0.0, 0.0, 0.0, 0.0, 0.0, 1.6466915261122873E9, 0.0, 2022-03-07 14:18:46.112
70.0, -28.862677908036858, 60.82573287934065, -16.917437449563295, 9.05242784274742, -0.41600001975893974, 0.7840000372380018, -0.6880000326782465, 0.0, 0.0, 0.0, 0.0, 0.0, 1.6466915261122873E9, 0.0, 2022-03-07 14:18:46.112
71.0, -47.547218086663634, 62.37031156104058, 1.1911581358872354, 9.946263932157308, -0.41600001975893974, 0.7520000357180834, -0.6880000326782465, 0.0, 0.0, 0.0, 0.0, 0.0, 1.6466915261130192E9, 0.0, 2022-03-07 14:18:46.113
71.0, -41.99346665246412, 71.47322805318981, -25.249934550840408, 21.210842598695308, -0.41600001975893974, 0.7520000357180834, -0.6880000326782465, 0.0, 0.0, 0.0, 0.0, 0.0, 1.6466915261130192E9, 0.0, 2022-03-07 14:18:46.113
72.0, -22.415090384427458, 67.37803760170937, -31.043039582204074, 11.019615219440311, -0.6560000311583281, 0.7520000357180834, -0.6880000326782465, 0.0, 0.0, 0.0, 0.0, 0.0, 1.6466915261237736E9, 0.0, 2022-03-07 14:18:46.123
72.0, -44.52537892246619, 64.50953433569521, -0.6526125422678888, 9.329180439468473, -0.6560000311583281, 0.7520000357180834, -0.6880000326782465, 0.0, 0.0, 0.0, 0.0, 0.0, 1.6466915261237736E9, 0.0, 2022-03-07 14:18:46.123
73.0, -49.61164286220446, 58.533174206502736, -5.222770288120955, 20.530180806759745, -0.6560000311583281, 0.7520000357180834, -0.6880000326782465, 0.0, 0.0, 0.0, 0.0, 0.0, 1.6466915261387398E9, 0.0, 2022-03-07 14:18:46.138
73.0, -22.893797578755766, 61.2894804738462, -26.914190031122416, 17.781354339327663, -0.6560000311583281, 0.7520000357180834, -0.6880000326782465, 0.0, 0.0, 0.0, 0.0, 0.0, 1.6466915261387398E9, 0.0, 2022-03-07 14:18:46.138
74.0, -34.52488644095138, 51.307687492109835, 0.6937514417804778, 9.45633703796193, -0.6560000311583281, 0.7520000357180834, -0.6880000326782465, 0.0, 0.0, 0.0, 0.0, 0.0, 1.646691526154402E9, 0.0, 2022-03-07 14:18:46.154
74.0, -52.66340122604743, 51.09077329467982, 8.360546350944787, 17.291427445132285, -0.6560000311583281, 0.7520000357180834, -0.6880000326782465, 0.0, 0.0, 0.0, 0.0, 0.0, 1.646691526154402E9, 0.0, 2022-03-07 14:18:46.154
75.0, -31.847118072677404, 52.76998837478459, -21.734428592491895, 22.482408583629876, -0.6560000311583281, 0.7520000357180834, -0.6880000326782465, 0.0, 0.0, 0.0, 0.0, 0.0, 1.6466915261551447E9, 0.0, 2022-03-07 14:18:46.155
75.0, -28.129657516721636, 44.463670573197305, -9.015028843190521, 11.46092341421172, -0.6560000311583281, 0.7520000357180834, -0.6880000326782465, 0.0, 0.0, 0.0, 0.0, 0.0, 1.6466915261551447E9, 0.0, 2022-03-07 14:18:46.155
76.0, -49.65278176171705, 45.316367763094604, 13.383231991436332, 20.563839906360954, -0.6560000311583281, 0.7520000357180834, -0.6880000326782465, 0.0, 0.0, 0.0, 0.0, 0.0, 1.646691526168812E9, 0.0, 2022-03-07 14:18:46.168
76.0, -40.276852572802454, 53.66756436415017, -5.761315881740302, 23.746494768653065, -0.6560000311583281, 0.7520000357180834, -0.6880000326782465, 0.0, 0.0, 0.0, 0.0, 0.0, 1.646691526168812E9, 0.0, 2022-03-07 14:18:46.168
77.0, -20.111312011722475, 43.293081887066364, -9.48999613756314, 13.162577894050628, -0.6560000311583281, 0.7520000357180834, -0.6880000326782465, 0.0, 0.0, 0.0, 0.0, 0.0, 1.6466915261844065E9, 0.0, 2022-03-07 14:18:46.184
77.0, -45.78572520753369, 47.36209303885698, 11.386125415097922, 18.806086927186698, -0.6560000311583281, 0.7520000357180834, -0.6880000326782465, 0.0, 0.0, 0.0, 0.0, 0.0, 1.6466915261844065E9, 0.0, 2022-03-07 14:18:46.184
78.0, -49.98937275772914, 45.74271635804325, 8.6522585474886, 24.76374755660072, -0.6560000311583281, 0.7520000357180834, -0.6880000326782465, 0.0, 0.0, 0.0, 0.0, 0.0, 1.6466915261851356E9, 0.0, 2022-03-07 14:18:46.185
78.0, -27.57989222323522, 44.433751373551786, -8.102493254002184, 15.387818367686123, -0.6560000311583281, 0.7520000357180834, -0.6880000326782465, 0.0, 0.0, 0.0, 0.0, 0.0, 1.6466915261851356E9, 0.0, 2022-03-07 14:18:46.185
79.0, -36.10312422225252, 40.12538662459701, 4.029742202255875, 13.05412079533562, -0.6560000311583281, 0.7520000357180834, -0.6880000326782465, 0.0, 0.0, 0.0, 0.0, 0.0, 1.6466915261988227E9, 0.0, 2022-03-07 14:18:46.198
79.0, -49.64904186176136, 36.98387066181749, 7.186217764858156, 23.13315117591992, -0.6560000311583281, 0.7520000357180834, -0.6880000326782465, 0.0, 0.0, 0.0, 0.0, 0.0, 1.6466915261988227E9, 0.0, 2022-03-07 14:18:46.198
80.0, -31.701261974405497, 45.76889565773308, -8.925271244253963, 20.204809510614723, -0.6560000311583281, 0.7520000357180834, -0.800000037997961, 0.0, 0.0, 0.0, 0.0, 0.0, 1.646691526214426E9, 0.0, 2022-03-07 14:18:46.214
80.0, -31.297352779190987, 43.259422787465155, -0.8283878401853144, 16.779061151202768, -0.6560000311583281, 0.7520000357180834, -0.800000037997961, 0.0, 0.0, 0.0, 0.0, 0.0, 1.646691526214426E9, 0.0, 2022-03-07 14:18:46.214
81.0, -49.01325886929408, 40.69011151790619, 11.812474010046571, 21.801746791694313, -0.6560000311583281, 0.6240000296384096, -0.800000037997961, 0.0, 0.0, 0.0, 0.0, 0.0, 1.646691526215137E9, 0.0, 2022-03-07 14:18:46.215
81.0, -37.879576701205224, 41.01174291409552, -4.171858400572091, 22.860138479154557, -0.6560000311583281, 0.6240000296384096, -0.800000037997961, 0.0, 0.0, 0.0, 0.0, 0.0, 1.646691526215137E9, 0.0, 2022-03-07 14:18:46.215
82.0, -26.02409384166822, 36.475244267843664, 0.7535898410715163, 10.181877629365772, -0.7680000364780426, 0.6240000296384096, -0.800000037997961, 0.0, 0.0, 0.0, 0.0, 0.0, 1.646691526228803E9, 0.0, 2022-03-07 14:18:46.228
82.0, -47.64819538546726, 40.802308516576886, 11.823693709913641, 22.164517087396234, -0.7680000364780426, 0.6240000296384096, -0.800000037997961, 0.0, 0.0, 0.0, 0.0, 0.0, 1.646691526228803E9, 0.0, 2022-03-07 14:18:46.228
83.0, -51.17118114372715, 35.87312037497759, 9.706910334993154, 29.494721000548452, -0.7680000364780426, 0.6240000296384096, -0.800000037997961, 0.0, 0.0, 0.0, 0.0, 0.0, 1.6466915262448602E9, 0.0, 2022-03-07 14:18:46.244
83.0, -29.741554397623986, 39.00341663789004, -1.049041937571019, 18.30120043316856, -0.7680000364780426, 0.6240000296384096, -0.800000037997961, 0.0, 0.0, 0.0, 0.0, 0.0, 1.6466915262448602E9, 0.0, 2022-03-07 14:18:46.244
84.0, -43.021939140278846, 41.32963441032916, 2.4253251212649047, 19.658784117083997, -0.7680000364780426, 0.6240000296384096, -0.800000037997961, 0.0, 0.0, 0.0, 0.0, 0.0, 1.6466915262594624E9, 0.0, 2022-03-07 14:18:46.259
84.0, -57.095182673539966, 37.37656015716493, 9.86772603308782, 24.947002654429525, -0.7680000364780426, 0.6240000296384096, -0.800000037997961, 0.0, 0.0, 0.0, 0.0, 0.0, 1.6466915262594624E9, 0.0, 2022-03-07 14:18:46.259
85.0, -36.90346281277016, 39.46716423239559, -0.6152135427109897, 19.845779114868492, -0.7680000364780426, 0.6240000296384096, -0.800000037997961, 0.0, 0.0, 0.0, 0.0, 0.0, 1.6466915262601297E9, 0.0, 2022-03-07 14:18:46.260
85.0, -34.86521733691916, 42.3917659977451, -0.14398614829406142, 17.747695239726454, -0.7680000364780426, 0.6240000296384096, -0.800000037997961, 0.0, 0.0, 0.0, 0.0, 0.0, 1.6466915262601297E9, 0.0, 2022-03-07 14:18:46.260
86.0, -55.101815997157246, 39.02959593757987, 4.250396299641579, 26.199869139585644, -0.7680000364780426, 0.6240000296384096, -0.800000037997961, 0.0, 0.0, 0.0, 0.0, 0.0, 1.6466915262908585E9, 0.0, 2022-03-07 14:18:46.290
86.0, -42.18794145016, 38.74910344090313, 6.718730270396918, 22.76290108030662, -0.7680000364780426, 0.6240000296384096, -0.800000037997961, 0.0, 0.0, 0.0, 0.0, 0.0, 1.6466915262908585E9, 0.0, 2022-03-07 14:18:46.290
87.0, -36.32377831963822, 40.52181601990014, 3.543555208016187, 13.88437858549878, -0.7680000364780426, 0.6240000296384096, -0.800000037997961, 0.0, 0.0, 0.0, 0.0, 0.0, 1.6466915262914937E9, 0.0, 2022-03-07 14:18:46.291
87.0, -47.072250792291015, 44.430011473596096, -1.9989765263162553, 24.78618695633486, -0.7680000364780426, 0.6240000296384096, -0.800000037997961, 0.0, 0.0, 0.0, 0.0, 0.0, 1.6466915262914937E9, 0.0, 2022-03-07 14:18:46.291
88.0, -46.630942597519606, 39.84489412792027, 12.197683705482632, 21.633451293688267, -0.7680000364780426, 0.6240000296384096, -0.800000037997961, 0.0, 0.0, 0.0, 0.0, 0.0, 1.646691526292264E9, 0.0, 2022-03-07 14:18:46.292
88.0, -34.46504804166034, 44.9835166670382, -0.11032704869285226, 11.954590208362788, -0.7680000364780426, 0.6240000296384096, -0.800000037997961, 0.0, 0.0, 0.0, 0.0, 0.0, 1.646691526292264E9, 0.0, 2022-03-07 14:18:46.292
89.0, -42.77510574320331, 43.708210782147944, -0.16642554802820086, 21.09490570006892, -0.7680000364780426, 0.6240000296384096, -0.800000037997961, 0.0, 0.0, 0.0, 0.0, 0.0, 1.6466915262930136E9, 0.0, 2022-03-07 14:18:46.293
89.0, -47.1881876909174, 34.72497108858079, 3.2892420110292733, 26.233528239186853, -0.7680000364780426, 0.6240000296384096, -0.800000037997961, 0.0, 0.0, 0.0, 0.0, 0.0, 1.6466915262930136E9, 0.0, 2022-03-07 14:18:46.293
90.0, -36.31629851972684, 35.77962287608534, 7.4667102615348995, 12.392158503178507, -0.7680000364780426, 0.6240000296384096, -0.8320000395178795, 0.0, 0.0, 0.0, 0.0, 0.0, 1.6466915263044412E9, 0.0, 2022-03-07 14:18:46.304
90.0, -38.0366524993442, 43.07990758959204, 2.4739438206888735, 14.882931873667985, -0.7680000364780426, 0.6240000296384096, -0.8320000395178795, 0.0, 0.0, 0.0, 0.0, 0.0, 1.6466915263044412E9, 0.0, 2022-03-07 14:18:46.304
91.0, -48.37747587682679, 38.26291644666344, 6.595313571859151, 30.231481291819364, -0.7680000364780426, 0.41600001975893974, -0.8320000395178795, 0.0, 0.0, 0.0, 0.0, 0.0, 1.6466915263351288E9, 0.0, 2022-03-07 14:18:46.335
91.0, -41.62321655685082, 36.32190836966038, 3.7642093054018915, 15.140984970610589, -0.7680000364780426, 0.41600001975893974, -0.8320000395178795, 0.0, 0.0, 0.0, 0.0, 0.0, 1.6466915263351288E9, 0.0, 2022-03-07 14:18:46.335
92.0, -36.91094261268154, 44.37391297426075, 2.328087722416967, 13.009241995867342, -0.6560000311583281, 0.41600001975893974, -0.8320000395178795, 0.0, 0.0, 0.0, 0.0, 0.0, 1.6466915263358655E9, 0.0, 2022-03-07 14:18:46.335
92.0, -48.51585217518732, 44.7628625696525, -0.5030165440402925, 28.567225811537355, -0.6560000311583281, 0.41600001975893974, -0.8320000395178795, 0.0, 0.0, 0.0, 0.0, 0.0, 1.6466915263358655E9, 0.0, 2022-03-07 14:18:46.335
93.0, -45.76328580779955, 35.28221618197858, 12.373459003400058, 22.35525198513642, -0.6560000311583281, 0.41600001975893974, -0.8320000395178795, 0.0, 0.0, 0.0, 0.0, 0.0, 1.646691526336563E9, 0.0, 2022-03-07 14:18:46.336
93.0, -38.13762979814783, 41.08654091320932, 9.243162740487605, 11.988249307963997, -0.6560000311583281, 0.41600001975893974, -0.8320000395178795, 0.0, 0.0, 0.0, 0.0, 0.0, 1.646691526336563E9, 0.0, 2022-03-07 14:18:46.336
94.0, -42.50957284634933, 46.55053474847227, -1.1724586361087859, 24.75252785673365, -0.6560000311583281, 0.41600001975893974, -0.8320000395178795, 0.0, 0.0, 0.0, 0.0, 0.0, 1.6466915263486862E9, 0.0, 2022-03-07 14:18:46.348
94.0, -46.37662940053269, 31.83402842283249, 10.323993827681988, 23.57445937069133, -0.6560000311583281, 0.41600001975893974, -0.8320000395178795, 0.0, 0.0, 0.0, 0.0, 0.0, 1.6466915263486862E9, 0.0, 2022-03-07 14:18:46.348
95.0, -39.67472867993638, 37.7580299526453, 8.65599844744429, 13.398191591259092, -0.6560000311583281, 0.41600001975893974, -0.8320000395178795, 0.0, 0.0, 0.0, 0.0, 0.0, 1.646691526364437E9, 0.0, 2022-03-07 14:18:46.364
95.0, -42.92470174143091, 44.30285487510264, -3.341600610408932, 17.377445144113153, -0.6560000311583281, 0.41600001975893974, -0.8320000395178795, 0.0, 0.0, 0.0, 0.0, 0.0, 1.646691526364437E9, 0.0, 2022-03-07 14:18:46.364
96.0, -43.081777539569885, 39.78879562858492, -0.32724124612286687, 28.234374715480953, -0.6560000311583281, 0.41600001975893974, -0.8320000395178795, 0.0, 0.0, 0.0, 0.0, 0.0, 1.6466915263651528E9, 0.0, 2022-03-07 14:18:46.365
96.0, -43.5567448339425, 35.68986527714878, 11.139292018022388, 17.684116940479726, -0.6560000311583281, 0.41600001975893974, -0.8320000395178795, 0.0, 0.0, 0.0, 0.0, 0.0, 1.6466915263651528E9, 0.0, 2022-03-07 14:18:46.365
97.0, -43.97561362897977, 45.95589065551758, 2.171011924277991, 15.148464770521969, -0.6560000311583281, 0.41600001975893974, -0.8320000395178795, 0.0, 0.0, 0.0, 0.0, 0.0, 1.64669152637868E9, 0.0, 2022-03-07 14:18:46.378
97.0, -43.65398223279044, 44.53472867235541, -4.63560599507764, 28.30917271459475, -0.6560000311583281, 0.41600001975893974, -0.8320000395178795, 0.0, 0.0, 0.0, 0.0, 0.0, 1.64669152637868E9, 0.0, 2022-03-07 14:18:46.378
98.0, -43.31365133682266, 31.108487831428647, 15.597252765204757, 18.67145052878186, -0.6560000311583281, 0.41600001975893974, -0.8320000395178795, 0.0, 0.0, 0.0, 0.0, 0.0, 1.646691526394417E9, 0.0, 2022-03-07 14:18:46.394
98.0, -45.052704816218466, 47.579007236287, 8.760715646203607, 14.29950748058036, -0.6560000311583281, 0.41600001975893974, -0.8320000395178795, 0.0, 0.0, 0.0, 0.0, 0.0, 1.646691526394417E9, 0.0, 2022-03-07 14:18:46.394
99.0, -41.024832563940436, 45.46222386136651, -3.053628313820809, 27.54623312363401, -0.6560000311583281, 0.41600001975893974, -0.8320000395178795, 0.0, 0.0, 0.0, 0.0, 0.0, 1.6466915263951411E9, 0.0, 2022-03-07 14:18:46.395
99.0, -39.94400147674605, 28.763570559211075, 15.10358597105369, 23.623078070115298, -0.6560000311583281, 0.41600001975893974, -0.8320000395178795, 0.0, 0.0, 0.0, 0.0, 0.0, 1.6466915263951411E9, 0.0, 2022-03-07 14:18:46.395
100.0, -41.19312806194648, 41.32963441032916, 16.098399359267205, 11.08693341864273, -0.6560000311583281, 0.41600001975893974, -0.8320000395178795, 0.0, 0.0, 0.0, 0.0, 0.0, 1.6466915264094355E9, 0.0, 2022-03-07 14:18:46.409
100.0, -46.01759900478646, 48.491542825475335, -4.317714498843998, 19.46430931938812, -0.6560000311583281, 0.41600001975893974, -0.8320000395178795, 0.0, 0.0, 0.0, 0.0, 0.0, 1.6466915264094355E9, 0.0, 2022-03-07 14:18:46.409
0.0, -38.042262349277735, 38.37324349535629, 2.773135817144066, 25.831488993950188, -0.6560000311583281, 0.41600001975893974, -0.8320000395178795, 0.0, 0.0, 0.0, 0.0, 0.0, 1.6466915264101233E9, 0.0, 2022-03-07 14:18:46.410
1.0, -42.907872191630304, 34.08357824617997, 16.24425545753911, 14.035844533704221, -0.6560000311583281, 0.35200001671910286, -0.8320000395178795, 0.0, 0.0, 0.0, 0.0, 0.0, 1.6466915264237216E9, 0.0, 2022-03-07 14:18:46.423
1.0, -45.260269263759255, 45.535151910502464, 1.5763678313232958, 21.37726814672351, -0.6560000311583281, 0.35200001671910286, -0.8320000395178795, 0.0, 0.0, 0.0, 0.0, 0.0, 1.6466915264237216E9, 0.0, 2022-03-07 14:18:46.423
2.0, -41.262316211126745, 39.854243877809495, -4.64308579498902, 25.872627893462777, -0.4640000220388174, 0.35200001671910286, -0.8320000395178795, 0.0, 0.0, 0.0, 0.0, 0.0, 1.6466915264394877E9, 0.0, 2022-03-07 14:18:46.439
2.0, -39.55318193137646, 29.50968060037121, 23.50340127153322, 14.338776430115104, -0.4640000220388174, 0.35200001671910286, -0.8320000395178795, 0.0, 0.0, 0.0, 0.0, 0.0, 1.6466915264394877E9, 0.0, 2022-03-07 14:18:46.439
3.0, -45.84369365684688, 48.736506272573024, 7.649965359363705, 17.035244298167527, -0.4640000220388174, 0.35200001671910286, -0.8320000395178795, 0.0, 0.0, 0.0, 0.0, 0.0, 1.646691526440133E9, 0.0, 2022-03-07 14:18:46.440
3.0, -42.21599069982767, 45.531412010546774, -10.66058482369408, 25.40514039900154, -0.4640000220388174, 0.35200001671910286, -0.8320000395178795, 0.0, 0.0, 0.0, 0.0, 0.0, 1.646691526440133E9, 0.0, 2022-03-07 14:18:46.440
4.0, -36.056375472806394, 29.9958675946109, 16.962316249031574, 12.775498248636723, -0.4640000220388174, 0.35200001671910286, -0.8320000395178795, 0.0, 0.0, 0.0, 0.0, 0.0, 1.6466915264537625E9, 0.0, 2022-03-07 14:18:46.453
4.0, -43.610973383300006, 42.47217384679243, 13.555267389398068, 16.676213902421296, -0.4640000220388174, 0.35200001671910286, -0.8320000395178795, 0.0, 0.0, 0.0, 0.0, 0.0, 1.6466915264537625E9, 0.0, 2022-03-07 14:18:46.453
5.0, -46.55053474847227, 49.4134281645529, -6.838407068978995, 27.70143897179514, -0.4640000220388174, 0.35200001671910286, -0.8320000395178795, 0.0, 0.0, 0.0, 0.0, 0.0, 1.6466915264694464E9, 0.0, 2022-03-07 14:18:46.469
5.0, -34.51927659101784, 34.34163134312257, 7.930457856040448, 15.29245091881603, -0.4640000220388174, 0.35200001671910286, -0.8320000395178795, 0.0, 0.0, 0.0, 0.0, 0.0, 1.6466915264694464E9, 0.0, 2022-03-07 14:18:46.469
6.0, -43.48755668476224, 35.037252734880894, 20.31700650928542, 15.161554420366883, -0.4640000220388174, 0.35200001671910286, -0.8320000395178795, 0.0, 0.0, 0.0, 0.0, 0.0, 1.646691526470152E9, 0.0, 2022-03-07 14:18:46.470
6.0, -49.50131581351161, 51.904201535042375, -2.421585221309215, 29.148780254647136, -0.4640000220388174, 0.35200001671910286, -0.8320000395178795, 0.0, 0.0, 0.0, 0.0, 0.0, 1.646691526470152E9, 0.0, 2022-03-07 14:18:46.470
7.0, -35.39067328069359, 42.270219249185175, -2.1448326245881617, 22.663793731480837, -0.4640000220388174, 0.35200001671910286, -0.8320000395178795, 0.0, 0.0, 0.0, 0.0, 0.0, 1.646691526483718E9, 0.0, 2022-03-07 14:18:46.483
7.0, -35.47295107971877, 24.883424355182797, 25.047979953233153, 9.562924186699092, -0.4640000220388174, 0.35200001671910286, -0.8320000395178795, 0.0, 0.0, 0.0, 0.0, 0.0, 1.646691526483718E9, 0.0, 2022-03-07 14:18:46.483
8.0, -50.956136896274984, 49.01325886929408, -0.4506579446606338, 27.551842973567545, -0.4640000220388174, 0.35200001671910286, -0.8320000395178795, 0.0, 0.0, 0.0, 0.0, 0.0, 1.6466915264994743E9, 0.0, 2022-03-07 14:18:46.499
8.0, -42.25712959934026, 47.947387381922454, -8.749495946336538, 28.438199263066053, -0.4640000220388174, 0.35200001671910286, -0.8320000395178795, 0.0, 0.0, 0.0, 0.0, 0.0, 1.6466915264994743E9, 0.0, 2022-03-07 14:18:46.499
9.0, -30.349288140423596, 25.642624046187848, 20.29456710955128, 10.516598675400019, -0.4640000220388174, 0.35200001671910286, -0.8320000395178795, 0.0, 0.0, 0.0, 0.0, 0.0, 1.6466915265001702E9, 0.0, 2022-03-07 14:18:46.500
9.0, -46.75996914599091, 45.830604007001966, 4.23543669981882, 22.390781034715474, -0.4640000220388174, 0.35200001671910286, -0.8320000395178795, 0.0, 0.0, 0.0, 0.0, 0.0, 1.6466915265001702E9, 0.0, 2022-03-07 14:18:46.500
10.0, -51.48720268998295, 50.251165754627436, -11.105632918421179, 30.502624038606882, -0.4640000220388174, 0.35200001671910286, -0.7200000341981649, 0.0, 0.0, 0.0, 0.0, 0.0, 1.6466915265137434E9, 0.0, 2022-03-07 14:18:46.513
10.0, -30.674659436568618, 32.576398564036936, 10.122039230074733, 16.421900705434382, -0.4640000220388174, 0.35200001671910286, -0.7200000341981649, 0.0, 0.0, 0.0, 0.0, 0.0, 1.6466915265137434E9, 0.0, 2022-03-07 14:18:46.513
11.0, -42.021515902131796, 35.762793326284736, 15.230742569547147, 21.074336250312626, -0.4640000220388174, 0.4000000189989805, -0.7200000341981649, 0.0, 0.0, 0.0, 0.0, 0.0, 1.6466915265294466E9, 0.0, 2022-03-07 14:18:46.529
11.0, -52.38103877939284, 51.960300034377724, -9.332920339424163, 34.34350129310042, -0.4640000220388174, 0.4000000189989805, -0.7200000341981649, 0.0, 0.0, 0.0, 0.0, 0.0, 1.6466915265294466E9, 0.0, 2022-03-07 14:18:46.529
12.0, -33.954551697708666, 40.75181986717507, 3.5996537073515356, 21.33986914716661, -0.17600000835955143, 0.4000000189989805, -0.7200000341981649, 0.0, 0.0, 0.0, 0.0, 0.0, 1.6466915265301204E9, 0.0, 2022-03-07 14:18:46.530
12.0, -34.92692568618804, 24.81610615598038, 29.663016498554498, 10.565217374823987, -0.17600000835955143, 0.4000000189989805, -0.7200000341981649, 0.0, 0.0, 0.0, 0.0, 0.0, 1.6466915265301204E9, 0.0, 2022-03-07 14:18:46.530
13.0, -53.86951896175742, 51.870542435441166, -3.4051789096556604, 35.603847578167915, -0.17600000835955143, 0.4000000189989805, -0.7200000341981649, 0.0, 0.0, 0.0, 0.0, 0.0, 1.646691526543723E9, 0.0, 2022-03-07 14:18:46.543
13.0, -39.04829543735832, 44.81335121905431, -2.5524817197583616, 25.532296997494996, -0.17600000835955143, 0.4000000189989805, -0.7200000341981649, 0.0, 0.0, 0.0, 0.0, 0.0, 1.646691526543723E9, 0.0, 2022-03-07 14:18:46.543
14.0, -27.510704074054956, 26.600038434844464, 27.20964212762192, 5.538791834376752, -0.17600000835955143, 0.4000000189989805, -0.7200000341981649, 0.0, 0.0, 0.0, 0.0, 0.0, 1.646691526559444E9, 0.0, 2022-03-07 14:18:46.559
14.0, -52.78120807465166, 51.43671404058114, 0.22626394731923938, 30.106194643303752, -0.17600000835955143, 0.4000000189989805, -0.7200000341981649, 0.0, 0.0, 0.0, 0.0, 0.0, 1.646691526559444E9, 0.0, 2022-03-07 14:18:46.559
15.0, -51.22540969308466, 55.61418229108676, -9.112266242038459, 36.59492106642574, -0.17600000835955143, 0.4000000189989805, -0.7200000341981649, 0.0, 0.0, 0.0, 0.0, 0.0, 1.6466915265601473E9, 0.0, 2022-03-07 14:18:46.560
15.0, -30.259530541487038, 30.500754088629037, 15.9151442614384, 8.964540193788707, -0.17600000835955143, 0.4000000189989805, -0.7200000341981649, 0.0, 0.0, 0.0, 0.0, 0.0, 1.6466915265601473E9, 0.0, 2022-03-07 14:18:46.560
16.0, -44.37391297426075, 38.81081179017201, 16.109619059134275, 18.654620978981256, -0.17600000835955143, 0.4000000189989805, -0.7200000341981649, 0.0, 0.0, 0.0, 0.0, 0.0, 1.6466915265737212E9, 0.0, 2022-03-07 14:18:46.573
16.0, -56.925017225556076, 57.2298190719448, -15.099846071098, 41.93175830319524, -0.17600000835955143, 0.4000000189989805, -0.7200000341981649, 0.0, 0.0, 0.0, 0.0, 0.0, 1.6466915265737212E9, 0.0, 2022-03-07 14:18:46.573
17.0, -31.463778327219188, 39.3717967835255, 4.803901493083686, 19.230565572157502, -0.17600000835955143, 0.4000000189989805, -0.7200000341981649, 0.0, 0.0, 0.0, 0.0, 0.0, 1.6466915265894012E9, 0.0, 2022-03-07 14:18:46.589
17.0, -33.07567520812154, 24.4009772608988, 31.52174677653238, 7.326464013196528, -0.17600000835955143, 0.4000000189989805, -0.7200000341981649, 0.0, 0.0, 0.0, 0.0, 0.0, 1.6466915265894012E9, 0.0, 2022-03-07 14:18:46.589
18.0, -60.09645238798112, 56.65013457881287, -10.193097329232842, 41.77094260510057, -0.17600000835955143, 0.4000000189989805, -0.7200000341981649, 0.0, 0.0, 0.0, 0.0, 0.0, 1.6466915265901074E9, 0.0, 2022-03-07 14:18:46.590
18.0, -40.65645241830498, 44.05789142800495, 0.05422854935750365, 26.669226584024727, -0.17600000835955143, 0.4000000189989805, -0.7200000341981649, 0.0, 0.0, 0.0, 0.0, 0.0, 1.6466915265901074E9, 0.0, 2022-03-07 14:18:46.590
19.0, -26.773943782784045, 19.322193121071905, 32.38940356625244, 0.8826163895428181, -0.17600000835955143, 0.4000000189989805, -0.7200000341981649, 0.0, 0.0, 0.0, 0.0, 0.0, 1.6466915266037855E9, 0.0, 2022-03-07 14:18:46.603
19.0, -55.02140814810991, 48.0408848808147, -7.530288560781628, 39.216590935364366, -0.17600000835955143, 0.4000000189989805, -0.7200000341981649, 0.0, 0.0, 0.0, 0.0, 0.0, 1.6466915266037855E9, 0.0, 2022-03-07 14:18:46.603
20.0, -57.53836081828922, 53.30666401842609, -18.64901112904772, 37.13346666004509, -0.17600000835955143, 0.4000000189989805, -0.5920000281184912, 0.0, 0.0, 0.0, 0.0, 0.0, 1.646691526619382E9, 0.0, 2022-03-07 14:18:46.619
20.0, -24.96383220423013, 25.1040784525685, 23.039653677027673, 7.790211607702076, -0.17600000835955143, 0.4000000189989805, -0.5920000281184912, 0.0, 0.0, 0.0, 0.0, 0.0, 1.646691526619382E9, 0.0, 2022-03-07 14:18:46.619
21.0, -48.31576752755791, 37.76363980257884, 12.814767198171467, 27.36858787573874, -0.17600000835955143, 0.43200002051889896, -0.5920000281184912, 0.0, 0.0, 0.0, 0.0, 0.0, 1.646691526620102E9, 0.0, 2022-03-07 14:18:46.620
21.0, -60.64621768146753, 58.381708258297294, -16.951096549164504, 49.8005078099668, -0.17600000835955143, 0.43200002051889896, -0.5920000281184912, 0.0, 0.0, 0.0, 0.0, 0.0, 1.646691526620102E9, 0.0, 2022-03-07 14:18:46.620
22.0, -32.96347820945084, 33.31689875526354, 14.247148881200701, 14.230319331400096, 0.0800000037997961, 0.43200002051889896, -0.5920000281184912, 0.0, 0.0, 0.0, 0.0, 0.0, 1.646691526633798E9, 0.0, 2022-03-07 14:18:46.633
22.0, -33.74511730019003, 23.52584067126736, 35.60197762819007, 7.550858010537922, 0.0800000037997961, 0.43200002051889896, -0.5920000281184912, 0.0, 0.0, 0.0, 0.0, 0.0, 1.646691526633798E9, 0.0, 2022-03-07 14:18:46.633
23.0, -65.75866092089564, 63.29593680007383, -22.235575186554343, 50.64198529999703, 0.0800000037997961, 0.43200002051889896, -0.5920000281184912, 0.0, 0.0, 0.0, 0.0, 0.0, 1.6466915266495E9, 0.0, 2022-03-07 14:18:46.649
23.0, -41.89435930363834, 42.640469344798476, -6.112866477575153, 24.313089611940086, 0.0800000037997961, 0.43200002051889896, -0.5920000281184912, 0.0, 0.0, 0.0, 0.0, 0.0, 1.6466915266495E9, 0.0, 2022-03-07 14:18:46.649
24.0, -24.866594805382192, 16.65938435262069, 30.583031887654215, -2.969480564817786, 0.0800000037997961, 0.43200002051889896, -0.5920000281184912, 0.0, 0.0, 0.0, 0.0, 0.0, 1.6466915266501424E9, 0.0, 2022-03-07 14:18:46.650
24.0, -60.567679782398045, 52.16973443189636, -8.895352044608444, 46.77118884585798, 0.0800000037997961, 0.43200002051889896, -0.5920000281184912, 0.0, 0.0, 0.0, 0.0, 0.0, 1.6466915266501424E9, 0.0, 2022-03-07 14:18:46.650
25.0, -58.27138120960444, 55.65158129064366, -12.616552500519902, 45.8736128564924, 0.0800000037997961, 0.43200002051889896, -0.5920000281184912, 0.0, 0.0, 0.0, 0.0, 0.0, 1.646691526663836E9, 0.0, 2022-03-07 14:18:46.663
25.0, -23.29209692403674, 21.99622158939019, 27.19842242775485, -2.453374370932579, 0.0800000037997961, 0.43200002051889896, -0.5920000281184912, 0.0, 0.0, 0.0, 0.0, 0.0, 1.646691526663836E9, 0.0, 2022-03-07 14:18:46.663
26.0, -52.85600607376546, 42.09444395126775, 9.755529034417123, 30.24083104170859, 0.0800000037997961, 0.43200002051889896, -0.5920000281184912, 0.0, 0.0, 0.0, 0.0, 0.0, 1.6466915266794236E9, 0.0, 2022-03-07 14:18:46.679
26.0, -70.05206607002765, 62.2712042122148, -25.49302804796025, 58.0282877124846, 0.0800000037997961, 0.43200002051889896, -0.5920000281184912, 0.0, 0.0, 0.0, 0.0, 0.0, 1.6466915266794236E9, 0.0, 2022-03-07 14:18:46.679
27.0, -30.62978063710034, 30.470834888983518, 9.48999613756314, 8.403555200435221, 0.0800000037997961, 0.43200002051889896, -0.5920000281184912, 0.0, 0.0, 0.0, 0.0, 0.0, 1.6466915266800966E9, 0.0, 2022-03-07 14:18:46.680
27.0, -36.852974163368344, 20.874251602683216, 34.06113884644583, 6.129696027375758, 0.0800000037997961, 0.43200002051889896, -0.5920000281184912, 0.0, 0.0, 0.0, 0.0, 0.0, 1.6466915266800966E9, 0.0, 2022-03-07 14:18:46.680
28.0, -75.16824920941144, 65.41646007495001, -24.980661754030734, 63.59699874650687, 0.0800000037997961, 0.43200002051889896, -0.5920000281184912, 0.0, 0.0, 0.0, 0.0, 0.0, 1.6466915266937578E9, 0.0, 2022-03-07 14:18:46.693
28.0, -42.75827619340271, 45.32945741293952, -4.3251942987553775, 27.151673678308725, 0.0800000037997961, 0.43200002051889896, -0.5920000281184912, 0.0, 0.0, 0.0, 0.0, 0.0, 1.6466915266937578E9, 0.0, 2022-03-07 14:18:46.693
29.0, -22.832089229486883, 13.648764888290316, 39.76822617882863, -9.533004987053573, 0.0800000037997961, 0.43200002051889896, -0.5920000281184912, 0.0, 0.0, 0.0, 0.0, 0.0, 1.6466915267257955E9, 0.0, 2022-03-07 14:18:46.725
29.0, -70.41857626568526, 64.65352048398927, -30.39977678982541, 59.87579829059541, 0.0800000037997961, 0.43200002051889896, -0.5920000281184912, 0.0, 0.0, 0.0, 0.0, 0.0, 1.6466915267257955E9, 0.0, 2022-03-07 14:18:46.725
30.0, -63.376344649121165, 71.99494409700856, -36.260200020391494, 55.1747440462932, 0.0800000037997961, 0.43200002051889896, -0.4800000227987766, 0.0, 0.0, 0.0, 0.0, 0.0, 1.6466915267265124E9, 0.0, 2022-03-07 14:18:46.726
30.0, -19.208126172423363, 18.577953029889613, 35.99466712353751, -12.012558657675982, 0.0800000037997961, 0.43200002051889896, -0.4800000227987766, 0.0, 0.0, 0.0, 0.0, 0.0, 1.6466915267265124E9, 0.0, 2022-03-07 14:18:46.726
31.0, -57.91983061376959, 44.293505125213414, -3.5248557082377374, 45.94093105569482, 0.0800000037997961, 0.5600000265985727, -0.4800000227987766, 0.0, 0.0, 0.0, 0.0, 0.0, 1.6466915267272575E9, 0.0, 2022-03-07 14:18:46.727
31.0, -82.35633692424744, 76.86055393936113, -42.96210074098781, 84.09539040364325, 0.0800000037997961, 0.5600000265985727, -0.4800000227987766, 0.0, 0.0, 0.0, 0.0, 0.0, 1.6466915267272575E9, 0.0, 2022-03-07 14:18:46.727
32.0, -32.70916501246393, 29.94350899523124, 24.905863754916936, 9.446987288072705, 0.2400000113993883, 0.5600000265985727, -0.4800000227987766, 0.0, 0.0, 0.0, 0.0, 0.0, 1.6466915267279708E9, 0.0, 2022-03-07 14:18:46.727
32.0, -38.59202764276415, 13.701123487669975, 46.22329350234941, 12.371589053422213, 0.2400000113993883, 0.5600000265985727, -0.4800000227987766, 0.0, 0.0, 0.0, 0.0, 0.0, 1.6466915267279708E9, 0.0, 2022-03-07 14:18:46.727
33.0, -92.62236230261624, 72.26047699386254, -44.84701031865552, 96.16404756065458, 0.2400000113993883, 0.5600000265985727, -0.4800000227987766, 0.0, 0.0, 0.0, 0.0, 0.0, 1.6466915267387457E9, 0.0, 2022-03-07 14:18:46.738
33.0, -48.61869942396879, 38.635036492254585, 3.5622547077946365, 29.302116152830422, 0.2400000113993883, 0.5600000265985727, -0.4800000227987766, 0.0, 0.0, 0.0, 0.0, 0.0, 1.6466915267387457E9, 0.0, 2022-03-07 14:18:46.738
34.0, -21.414667146280408, -2.1897114240564406, 63.86814149329439, -13.302824142389, 0.2400000113993883, 0.5600000265985727, -0.4800000227987766, 0.0, 0.0, 0.0, 0.0, 0.0, 1.646691526753674E9, 0.0, 2022-03-07 14:18:46.753
34.0, -87.46878016367555, 60.44239313388243, -35.418722530361265, 84.48060009907931, 0.2400000113993883, 0.5600000265985727, -0.4800000227987766, 0.0, 0.0, 0.0, 0.0, 0.0, 1.646691526753674E9, 0.0, 2022-03-07 14:18:46.753
35.0, -74.06871862243861, 58.96887255134061, -32.980307759251446, 71.34233155474067, 0.2400000113993883, 0.5600000265985727, -0.4800000227987766, 0.0, 0.0, 0.0, 0.0, 0.0, 1.6466915267694616E9, 0.0, 2022-03-07 14:18:46.769
35.0, -13.613235838711262, 2.0288957259617746, 61.07443622639403, -29.646186948753893, 0.2400000113993883, 0.5600000265985727, -0.4800000227987766, 0.0, 0.0, 0.0, 0.0, 0.0, 1.6466915267694616E9, 0.0, 2022-03-07 14:18:46.769
36.0, -68.30179289076477, 49.525625163223594, -3.577214307617396, 52.59047317691147, 0.2400000113993883, 0.5600000265985727, -0.4800000227987766, 0.0, 0.0, 0.0, 0.0, 0.0, 1.646691526770152E9, 0.0, 2022-03-07 14:18:46.770
36.0, -108.72263161186129, 71.67331270081922, -57.88804146414623, 120.5033164722845, 0.2400000113993883, 0.5600000265985727, -0.4800000227987766, 0.0, 0.0, 0.0, 0.0, 0.0, 1.646691526770152E9, 0.0, 2022-03-07 14:18:46.770
37.0, -45.641739059239626, 18.933243525680155, 29.59943819930777, 15.202693319879472, 0.2400000113993883, 0.5600000265985727, -0.4800000227987766, 0.0, 0.0, 0.0, 0.0, 0.0, 1.6466915267837048E9, 0.0, 2022-03-07 14:18:46.783
37.0, -101.10819530207664, 24.606671758461744, 39.035205787513405, 61.67095026932657, 0.2400000113993883, 0.5600000265985727, -0.4800000227987766, 0.0, 0.0, 0.0, 0.0, 0.0, 1.6466915267837048E9, 0.0, 2022-03-07 14:18:46.783
38.0, -150.85634451266378, 103.0660329288803, -100.71363585675135, 177.77240449376404, 0.2400000113993883, 0.5600000265985727, -0.4800000227987766, 0.0, 0.0, 0.0, 0.0, 0.0, 1.6466915267994063E9, 0.0, 2022-03-07 14:18:46.799
38.0, -76.82502488978207, 57.36819537030533, -8.607379748020321, 50.42507110256702, 0.2400000113993883, 0.5600000265985727, -0.4800000227987766, 0.0, 0.0, 0.0, 0.0, 0.0, 1.6466915267994063E9, 0.0, 2022-03-07 14:18:46.799
39.0, -55.57491334155202, 27.882824119646102, 73.40862628025934, -17.831842988729477, 0.2400000113993883, 0.5600000265985727, -0.4800000227987766, 0.0, 0.0, 0.0, 0.0, 0.0, 1.646691526800141E9, 0.0, 2022-03-07 14:18:46.800
39.0, -115.60030763037503, 91.43868396664038, -61.10061552608386, 115.06550193671137, 0.2400000113993883, 0.5600000265985727, -0.4800000227987766, 0.0, 0.0, 0.0, 0.0, 0.0, 1.646691526800141E9, 0.0, 2022-03-07 14:18:46.800
40.0, -102.95196598023176, 71.43769900361076, -42.95836084103212, 103.24741807673126, 0.2400000113993883, 0.5600000265985727, -0.4640000220388174, 0.0, 0.0, 0.0, 0.0, 0.0, 1.6466915268136961E9, 0.0, 2022-03-07 14:18:46.813
40.0, -28.14648706652224, 8.880392444785684, 82.52650237223133, -37.85152745153755, 0.2400000113993883, 0.5600000265985727, -0.4640000220388174, 0.0, 0.0, 0.0, 0.0, 0.0, 1.6466915268136961E9, 0.0, 2022-03-07 14:18:46.813
41.0, -78.43318187072873, 54.42863400513306, -6.427018073853105, 49.58733351249248, 0.2400000113993883, 0.7200000341981649, -0.4640000220388174, 0.0, 0.0, 0.0, 0.0, 0.0, 1.6466915268294067E9, 0.0, 2022-03-07 14:18:46.829
41.0, -96.7512118536979, 84.4301114496775, -68.56171593768522, 114.69899174105376, 0.2400000113993883, 0.7200000341981649, -0.4640000220388174, 0.0, 0.0, 0.0, 0.0, 0.0, 1.6466915268294067E9, 0.0, 2022-03-07 14:18:46.829
42.0, -12.139715256169438, 8.566240848507732, 63.9018005928956, -32.14070021919906, 0.25600001215934753, 0.7200000341981649, -0.4640000220388174, 0.0, 0.0, 0.0, 0.0, 0.0, 1.6466915268301191E9, 0.0, 2022-03-07 14:18:46.830
42.0, -22.222485536709428, 11.4684032141231, 67.92967284517363, -31.84524812269956, 0.25600001215934753, 0.7200000341981649, -0.4640000220388174, 0.0, 0.0, 0.0, 0.0, 0.0, 1.6466915268301191E9, 0.0, 2022-03-07 14:18:46.830
43.0, -98.7483184300363, 69.66498642461374, -59.514897944871336, 110.36444769240916, 0.25600001215934753, 0.7200000341981649, -0.4640000220388174, 0.0, 0.0, 0.0, 0.0, 0.0, 1.6466915268438523E9, 0.0, 2022-03-07 14:18:46.843
43.0, -20.685386654920876, 27.448995724786073, 32.194928768556565, -1.9634474767372012, 0.25600001215934753, 0.7200000341981649, -0.4640000220388174, 0.0, 0.0, 0.0, 0.0, 0.0, 1.6466915268438523E9, 0.0, 2022-03-07 14:18:46.843
44.0, 6.4999461229890585, 1.606287030968815, 93.92197753721848, -76.0359059991315, 0.25600001215934753, 0.7200000341981649, -0.4640000220388174, 0.0, 0.0, 0.0, 0.0, 0.0, 1.6466915268600552E9, 0.0, 2022-03-07 14:18:46.860
44.0, -84.99670629296452, 50.24368595471606, -17.227849145885557, 82.13194292690605, 0.25600001215934753, 0.7200000341981649, -0.4640000220388174, 0.0, 0.0, 0.0, 0.0, 0.0, 1.6466915268600552E9, 0.0, 2022-03-07 14:18:46.860
45.0, -63.342685549519956, 30.497014188673347, 4.104540201369673, 60.10767208784819, 0.25600001215934753, 0.7200000341981649, -0.4640000220388174, 0.0, 0.0, 0.0, 0.0, 0.0, 1.6466915268607757E9, 0.0, 2022-03-07 14:18:46.860
45.0, 11.126202368177474, -13.435590590815991, 103.77661392046139, -80.86411684192717, 0.25600001215934753, 0.7200000341981649, -0.4640000220388174, 0.0, 0.0, 0.0, 0.0, 0.0, 1.6466915268607757E9, 0.0, 2022-03-07 14:18:46.860
46.0, -58.563093406148255, 43.33983063651249, 14.636098476592451, 27.00581758003682, 0.25600001215934753, 0.7200000341981649, -0.4640000220388174, 0.0, 0.0, 0.0, 0.0, 0.0, 1.6466915268737564E9, 0.0, 2022-03-07 14:18:46.873
46.0, -77.61414378043264, 57.637468167115, -41.22678716154769, 84.24872630182654, 0.25600001215934753, 0.7200000341981649, -0.4640000220388174, 0.0, 0.0, 0.0, 0.0, 0.0, 1.6466915268737564E9, 0.0, 2022-03-07 14:18:46.873
47.0, 12.719399749301374, 23.320146173704416, 48.49715267540887, -61.420376972295344, 0.25600001215934753, 0.7200000341981649, -0.4640000220388174, 0.0, 0.0, 0.0, 0.0, 0.0, 1.6466915268894134E9, 0.0, 2022-03-07 14:18:46.889
47.0, 5.2134205382317305, 30.276360091287643, 53.504878716077656, -54.4342438550666, 0.25600001215934753, 0.7200000341981649, -0.4640000220388174, 0.0, 0.0, 0.0, 0.0, 0.0, 1.6466915268894134E9, 0.0, 2022-03-07 14:18:46.889
48.0, -83.87473630625755, 59.46253934549168, -52.89901492325589, 101.57568279653788, 0.25600001215934753, 0.7200000341981649, -0.4640000220388174, 0.0, 0.0, 0.0, 0.0, 0.0, 1.6466915268901393E9, 0.0, 2022-03-07 14:18:46.890
48.0, 34.74741048831493, 36.637929915916175, 10.765302022453398, -55.97508263681084, 0.25600001215934753, 0.7200000341981649, -0.4640000220388174, 0.0, 0.0, 0.0, 0.0, 0.0, 1.6466915268901393E9, 0.0, 2022-03-07 14:18:46.890
49.0, 160.0041398042813, 34.90261633647606, 50.81215074798092, -217.92397041805089, 0.25600001215934753, 0.7200000341981649, -0.4640000220388174, 0.0, 0.0, 0.0, 0.0, 0.0, 1.6466915269038477E9, 0.0, 2022-03-07 14:18:46.903
49.0, 103.72238537110388, 166.82758727343753, -145.06510943127796, -96.713812854141, 0.25600001215934753, 0.7200000341981649, -0.4640000220388174, 0.0, 0.0, 0.0, 0.0, 0.0, 1.6466915269038477E9, 0.0, 2022-03-07 14:18:46.903
50.0, 72.05291254632175, 196.01002662768587, -182.69224288547412, -58.503255006857216, 0.25600001215934753, 0.7200000341981649, -0.49600002355873585, 0.0, 0.0, 0.0, 0.0, 0.0, 1.6466915269358656E9, 0.0, 2022-03-07 14:18:46.935
50.0, 118.25937649887055, 47.57713728630915, 35.55709882872179, -173.35558264609426, 0.25600001215934753, 0.7200000341981649, -0.49600002355873585, 0.0, 0.0, 0.0, 0.0, 0.0, 1.6466915269358656E9, 0.0, 2022-03-07 14:18:46.935
51.0, 0.8190380902960896, 63.83448239369318, -12.949403596576303, -26.265317388810217, 0.25600001215934753, 0.7840000372380018, -0.49600002355873585, 0.0, 0.0, 0.0, 0.0, 0.0, 1.646691526936526E9, 0.0, 2022-03-07 14:18:46.936
51.0, -30.353028040379286, 77.58235463080928, -64.75823768274859, 50.6158060003072, 0.25600001215934753, 0.7840000372380018, -0.49600002355873585, 0.0, 0.0, 0.0, 0.0, 0.0, 1.646691526936526E9, 0.0, 2022-03-07 14:18:46.936
52.0, 78.38082327134907, 15.152204670477659, 52.293151130434126, -115.41331263259053, 0.2400000113993883, 0.7840000372380018, -0.49600002355873585, 0.0, 0.0, 0.0, 0.0, 0.0, 1.6466915269372787E9, 0.0, 2022-03-07 14:18:46.937
52.0, 9.323570589534938, 11.419784514699131, 66.56460936134681, -53.731142663396895, 0.2400000113993883, 0.7840000372380018, -0.49600002355873585, 0.0, 0.0, 0.0, 0.0, 0.0, 1.6466915269372787E9, 0.0, 2022-03-07 14:18:46.937
53.0, -120.00964967813343, 76.70347814122215, -66.14200066635385, 140.216329138726, 0.2400000113993883, 0.7840000372380018, -0.49600002355873585, 0.0, 0.0, 0.0, 0.0, 0.0, 1.6466915269380243E9, 0.0, 2022-03-07 14:18:46.938
53.0, -34.61277408991009, 21.10612539993599, 28.152096916455775, 8.212820302695036, 0.2400000113993883, 0.7840000372380018, -0.49600002355873585, 0.0, 0.0, 0.0, 0.0, 0.0, 1.6466915269380243E9, 0.0, 2022-03-07 14:18:46.938
54.0, 20.846202353015542, -3.0835475134663284, 106.22998829139397, -91.62754891440272, 0.2400000113993883, 0.7840000372380018, -0.49600002355873585, 0.0, 0.0, 0.0, 0.0, 0.0, 1.6466915269487646E9, 0.0, 2022-03-07 14:18:46.948
54.0, -96.20144656021148, 85.15191214112565, -41.488580158445984, 83.79993830714375, 0.2400000113993883, 0.7840000372380018, -0.49600002355873585, 0.0, 0.0, 0.0, 0.0, 0.0, 1.6466915269487646E9, 0.0, 2022-03-07 14:18:46.948
55.0, -74.65588291548193, 71.90892639802769, -42.89478254178539, 71.80233924929053, 0.2400000113993883, 0.7840000372380018, -0.49600002355873585, 0.0, 0.0, 0.0, 0.0, 0.0, 1.646691526963793E9, 0.0, 2022-03-07 14:18:46.963
55.0, 34.74741048831493, -6.954343967605382, 98.10692558763549, -93.29554429464042, 0.2400000113993883, 0.7840000372380018, -0.49600002355873585, 0.0, 0.0, 0.0, 0.0, 0.0, 1.646691526963793E9, 0.0, 2022-03-07 14:18:46.963
56.0, -46.857206544838846, 39.498953382018954, 11.419784514699131, 26.93475948087871, 0.2400000113993883, 0.7840000372380018, -0.49600002355873585, 0.0, 0.0, 0.0, 0.0, 0.0, 1.646691526995798E9, 0.0, 2022-03-07 14:18:46.995
56.0, -85.86436308268458, 76.00037694955245, -59.90384754026309, 101.1942130010575, 0.2400000113993883, 0.7840000372380018, -0.49600002355873585, 0.0, 0.0, 0.0, 0.0, 0.0, 1.646691526995798E9, 0.0, 2022-03-07 14:18:46.995
57.0, 10.09398998040706, 13.951696784701198, 69.96417842106894, -58.3237398089841, 0.2400000113993883, 0.7840000372380018, -0.49600002355873585, 0.0, 0.0, 0.0, 0.0, 0.0, 1.646691526996508E9, 0.0, 2022-03-07 14:18:46.996
57.0, -15.011958422139287, 21.10612539993599, 75.88444005092606, -50.900038396939635, 0.2400000113993883, 0.7840000372380018, -0.49600002355873585, 0.0, 0.0, 0.0, 0.0, 0.0, 1.646691526996508E9, 0.0, 2022-03-07 14:18:46.996
58.0, -107.91855312138796, 101.38681784877554, -72.978537785355, 110.97405138518661, 0.2400000113993883, 0.7840000372380018, -0.49600002355873585, 0.0, 0.0, 0.0, 0.0, 0.0, 1.6466915269972603E9, 0.0, 2022-03-07 14:18:46.997
58.0, -7.992166205309331, 27.355498225893825, 22.179476687218994, -14.226579431444407, 0.2400000113993883, 0.7840000372380018, -0.49600002355873585, 0.0, 0.0, 0.0, 0.0, 0.0, 1.6466915269972603E9, 0.0, 2022-03-07 14:18:46.997
59.0, 41.53158900793642, -27.475175024475902, 118.69507484370843, -101.14933420158923, 0.2400000113993883, 0.7840000372380018, -0.49600002355873585, 0.0, 0.0, 0.0, 0.0, 0.0, 1.6466915269980063E9, 0.0, 2022-03-07 14:18:46.998
59.0, -83.09309721551836, 74.73629076452926, -32.33704496687278, 73.05146583449095, 0.2400000113993883, 0.7840000372380018, -0.49600002355873585, 0.0, 0.0, 0.0, 0.0, 0.0, 1.6466915269980063E9, 0.0, 2022-03-07 14:18:46.998
60.0, -56.42013073153794, 70.9066332099028, -24.191542863380164, 45.18921116460115, 0.2400000113993883, 0.7840000372380018, -0.5120000243186951, 0.0, 0.0, 0.0, 0.0, 0.0, 1.6466915270243983E9, 0.0, 2022-03-07 14:18:47.024
60.0, 36.35556746926159, -18.469495931174606, 131.71740648942068, -125.7616158099845, 0.2400000113993883, 0.7840000372380018, -0.5120000243186951, 0.0, 0.0, 0.0, 0.0, 0.0, 1.6466915270243983E9, 0.0, 2022-03-07 14:18:47.024
61.0, -57.01477482449263, 38.182508597616106, 16.7304424517788, 29.37691415194422, 0.2400000113993883, 0.7840000372380018, -0.5120000243186951, 0.0, 0.0, 0.0, 0.0, 0.0, 1.6466915270251396E9, 0.0, 2022-03-07 14:18:47.025
61.0, -98.14245463721454, 84.16083865286782, -70.07263551978394, 118.63710639439523, 0.2400000113993883, 0.7840000372380018, -0.5120000243186951, 0.0, 0.0, 0.0, 0.0, 0.0, 1.6466915270251396E9, 0.0, 2022-03-07 14:18:47.025
62.0, -7.520938810892403, 3.132166212890297, 57.02786447433755, -24.458945710211992, 0.288000013679266, 0.7840000372380018, -0.5120000243186951, 0.0, 0.0, 0.0, 0.0, 0.0, 1.6466915270398085E9, 0.0, 2022-03-07 14:18:47.039
62.0, -10.800831072032452, -2.7955752168782055, 101.78324724407867, -61.005248077213764, 0.288000013679266, 0.7840000372380018, -0.5120000243186951, 0.0, 0.0, 0.0, 0.0, 0.0, 1.6466915270398085E9, 0.0, 2022-03-07 14:18:47.039
63.0, -110.15127339493483, 90.36533267935738, -32.38940356625244, 77.32991138380021, 0.288000013679266, 0.7840000372380018, -0.5120000243186951, 0.0, 0.0, 0.0, 0.0, 0.0, 1.646691527054416E9, 0.0, 2022-03-07 14:18:47.054
63.0, -26.52337048575282, 27.426556325051934, 17.5083416425623, 18.06745668593794, 0.288000013679266, 0.7840000372380018, -0.5120000243186951, 0.0, 0.0, 0.0, 0.0, 0.0, 1.646691527054416E9, 0.0, 2022-03-07 14:18:47.054
64.0, 17.24841859564185, -20.073913012165576, 94.48296253057197, -55.40287794359028, 0.288000013679266, 0.7840000372380018, -0.5120000243186951, 0.0, 0.0, 0.0, 0.0, 0.0, 1.646691527055123E9, 0.0, 2022-03-07 14:18:47.055
64.0, -94.25669858325273, 71.32176210498437, -44.82831081887707, 97.27479784749448, 0.288000013679266, 0.7840000372380018, -0.5120000243186951, 0.0, 0.0, 0.0, 0.0, 0.0, 1.646691527055123E9, 0.0, 2022-03-07 14:18:47.055
65.0, -62.68446315731853, 58.54252395639196, -30.31749899080023, 63.840092243626714, 0.288000013679266, 0.7840000372380018, -0.5120000243186951, 0.0, 0.0, 0.0, 0.0, 0.0, 1.6466915270693886E9, 0.0, 2022-03-07 14:18:47.069
65.0, 30.094974943436682, -21.618491693865508, 104.44979591248557, -82.5208925222978, 0.288000013679266, 0.7840000372380018, -0.5120000243186951, 0.0, 0.0, 0.0, 0.0, 0.0, 1.6466915270693886E9, 0.0, 2022-03-07 14:18:47.069
66.0, -57.759014915674925, 50.95052704634145, 10.028541731182486, 33.984470897354186, 0.288000013679266, 0.7840000372380018, -0.5120000243186951, 0.0, 0.0, 0.0, 0.0, 0.0, 1.646691527070108E9, 0.0, 2022-03-07 14:18:47.070
66.0, -97.87318184040487, 87.60154661210254, -74.04814917268232, 108.03449002001435, 0.288000013679266, 0.7840000372380018, -0.5120000243186951, 0.0, 0.0, 0.0, 0.0, 0.0, 1.646691527070108E9, 0.0, 2022-03-07 14:18:47.070
67.0, 2.651589068584144, 4.725363594014198, 54.49969210429117, -33.88349359855056, 0.288000013679266, 0.7840000372380018, -0.5120000243186951, 0.0, 0.0, 0.0, 0.0, 0.0, 1.6466915270837648E9, 0.0, 2022-03-07 14:18:47.083
67.0, -12.588503250852227, 4.957237391266972, 64.03269709134474, -24.20089261326939, 0.288000013679266, 0.7840000372380018, -0.5120000243186951, 0.0, 0.0, 0.0, 0.0, 0.0, 1.6466915270837648E9, 0.0, 2022-03-07 14:18:47.083
