%OpenBCI Raw EEG Data
%Number of channels = 4
%Sample Rate = 200 Hz
%Board = OpenBCI_GUI$BoardGanglionBLE
Sample Index, EXG Channel 0, EXG Channel 1, EXG Channel 2, EXG Channel 3, Accel Channel 0, Accel Channel 1, Accel Channel 2, Other, Other, Other, Other, Other, Timestamp, Other, Timestamp (Formatted)
2.0, -28.51299726217985, -214.15789116267115, -176.3849016102031, 64.20660243928432, -0.01600000075995922, 0.0, 0.0, 0.0, 0.0, 0.0, 0.0, 0.0, 1.6511848087605712E9, 0.0, 2022-04-28 15:26:48.760
2.0, -67.16112340427935, -448.8403532821685, -165.53171193879098, 296.4263404379599, -0.01600000075995922, 0.0, 0.0, 0.0, 0.0, 0.0, 0.0, 0.0, 1.6511848087605712E9, 0.0, 2022-04-28 15:26:48.760
3.0, 14.757645225152373, -444.733943130821, -293.89255821797997, 139.5842860462144, -0.01600000075995922, 0.0, 0.0, 0.0, 0.0, 0.0, 0.0, 0.0, 1.6511848087744603E9, 0.0, 2022-04-28 15:26:48.774
3.0, -52.470796378329396, -361.94938766164705, -516.0669249356724, -19.600815667770803, -0.01600000075995922, 0.0, 0.0, 0.0, 0.0, 0.0, 0.0, 0.0, 1.6511848087744603E9, 0.0, 2022-04-28 15:26:48.774
4.0, -113.13197365961969, -221.94810277037323, -568.438613965176, -252.0094186142087, -0.01600000075995922, 0.0, 0.0, 0.0, 0.0, 0.0, 0.0, 0.0, 1.6511848087751892E9, 0.0, 2022-04-28 15:26:48.775
4.0, 25.577175796963274, -331.74969551945105, -725.3909954056144, -371.6768674463965, -0.01600000075995922, 0.0, 0.0, 0.0, 0.0, 0.0, 0.0, 0.0, 1.6511848087751892E9, 0.0, 2022-04-28 15:26:48.775
5.0, -47.80714113358408, -348.56802562018856, -558.3595835845917, -488.11491266684607, -0.01600000075995922, 0.0, 0.0, 0.0, 0.0, 0.0, 0.0, 0.0, 1.651184808788808E9, 0.0, 2022-04-28 15:26:48.788
5.0, -108.98816450871527, -204.1760981809348, -691.3186368593015, -685.9556203228422, -0.01600000075995922, 0.0, 0.0, 0.0, 0.0, 0.0, 0.0, 0.0, 1.651184808788808E9, 0.0, 2022-04-28 15:26:48.788
6.0, 2.655328968539834, 2.2289803735911846, -493.1880869567394, -492.53173451451585, -0.01600000075995922, 0.0, 0.0, 0.0, 0.0, 0.0, 0.0, 0.0, 1.651184808804457E9, 0.0, 2022-04-28 15:26:48.804
6.0, -27.091835279017687, -220.38482458889484, -664.4642852274701, -426.9675483913161, -0.01600000075995922, 0.0, 0.0, 0.0, 0.0, 0.0, 0.0, 0.0, 1.651184808804457E9, 0.0, 2022-04-28 15:26:48.804
7.0, -75.82647160161287, -17.003455148544163, -891.1414914918132, -578.0295874015428, -0.01600000075995922, 0.0, 0.0, 0.0, 0.0, 0.0, 0.0, 0.0, 1.6511848088051393E9, 0.0, 2022-04-28 15:26:48.805
7.0, -72.03795294649899, 49.36854936508462, -655.8344660797156, -681.1909877792932, -0.01600000075995922, 0.0, 0.0, 0.0, 0.0, 0.0, 0.0, 0.0, 1.6511848088051393E9, 0.0, 2022-04-28 15:26:48.805
8.0, 10.643755273893476, 42.3917659977451, -777.388694439549, -844.0879401993006, -0.01600000075995922, 0.0, 0.0, 0.0, 0.0, 0.0, 0.0, 0.0, 1.6511848088187876E9, 0.0, 2022-04-28 15:26:48.818
8.0, -54.73343585152179, 123.6354826851748, -1004.2379361018538, -1006.6314720734954, -0.01600000075995922, 0.0, 0.0, 0.0, 0.0, 0.0, 0.0, 0.0, 1.6511848088187876E9, 0.0, 2022-04-28 15:26:48.818
9.0, -111.77438997570425, 269.493450907059, -1057.5333804204129, -1240.5173355024308, -0.01600000075995922, 0.0, 0.0, 0.0, 0.0, 0.0, 0.0, 0.0, 1.651184808850823E9, 0.0, 2022-04-28 15:26:48.850
9.0, 28.55039626173675, 153.59208133025095, -1218.274280515965, -1352.1140802302398, -0.01600000075995922, 0.0, 0.0, 0.0, 0.0, 0.0, 0.0, 0.0, 1.651184808850823E9, 0.0, 2022-04-28 15:26:48.850
10.0, -49.99124270770699, 142.9371063564904, -1049.2121030190028, -1468.941075046081, -0.01600000075995922, 0.0, 0.9760000463575125, 0.0, 0.0, 0.0, 0.0, 0.0, 1.6511848088515413E9, 0.0, 2022-04-28 15:26:48.851
10.0, -111.15356658305973, 284.292235031724, -1178.1395441414788, -1668.8162882779725, -0.01600000075995922, 0.0, 0.9760000463575125, 0.0, 0.0, 0.0, 0.0, 0.0, 1.6511848088515413E9, 0.0, 2022-04-28 15:26:48.851
11.0, -1.3052250845357776, 501.13911426253617, -986.7221146593802, -1472.7146341013722, -0.01600000075995922, -0.04800000227987766, 0.9760000463575125, 0.0, 0.0, 0.0, 0.0, 0.0, 1.6511848088522997E9, 0.0, 2022-04-28 15:26:48.852
11.0, -27.83981527015567, 270.0207768008113, -1157.755219432991, -1410.2957038409077, -0.01600000075995922, -0.04800000227987766, 0.9760000463575125, 0.0, 0.0, 0.0, 0.0, 0.0, 1.6511848088522997E9, 0.0, 2022-04-28 15:26:48.852
12.0, -80.69582134392112, 478.551988480147, -1380.707485341467, -1562.8424831335433, -0.01600000075995922, -0.04800000227987766, 0.9760000463575125, 0.0, 0.0, 0.0, 0.0, 0.0, 1.6511848088532405E9, 0.0, 2022-04-28 15:26:48.853
12.0, -73.57505182828754, 546.7490641721524, -1149.0057234866545, -1660.465091676917, -0.01600000075995922, -0.04800000227987766, 0.9760000463575125, 0.0, 0.0, 0.0, 0.0, 0.0, 1.6511848088532405E9, 0.0, 2022-04-28 15:26:48.853
13.0, 14.002185434103012, 529.2444624295458, -1271.1284166397527, -1821.0320864245296, -0.01600000075995922, -0.04800000227987766, 0.9760000463575125, 0.0, 0.0, 0.0, 0.0, 0.0, 1.6511848088637173E9, 0.0, 2022-04-28 15:26:48.863
13.0, -54.27342815697193, 616.2177058490925, -1495.1764732352458, -1981.7505471203476, -0.01600000075995922, -0.04800000227987766, 0.9760000463575125, 0.0, 0.0, 0.0, 0.0, 0.0, 1.6511848088637173E9, 0.0, 2022-04-28 15:26:48.863
14.0, -114.684032141231, 762.1953508695588, -1548.011909859255, -2215.1240442553535, -0.01600000075995922, -0.04800000227987766, 0.9760000463575125, 0.0, 0.0, 0.0, 0.0, 0.0, 1.6511848088787313E9, 0.0, 2022-04-28 15:26:48.878
14.0, 28.023070367984474, 643.3918189271353, -1710.4993432341143, -2329.828645846341, -0.01600000075995922, -0.04800000227987766, 0.9760000463575125, 0.0, 0.0, 0.0, 0.0, 0.0, 1.6511848088787313E9, 0.0, 2022-04-28 15:26:48.878
15.0, -48.67105802334845, 631.5812148670666, -1538.591101870872, -2451.6820662026294, -0.01600000075995922, -0.04800000227987766, 0.9760000463575125, 0.0, 0.0, 0.0, 0.0, 0.0, 1.6511848088944802E9, 0.0, 2022-04-28 15:26:48.894
15.0, -108.75255081150681, 773.5796063346788, -1666.6247069039382, -2655.4093763888814, -0.01600000075995922, -0.04800000227987766, 0.9760000463575125, 0.0, 0.0, 0.0, 0.0, 0.0, 1.6511848088944802E9, 0.0, 2022-04-28 15:26:48.894
16.0, 2.1018237750977278, 989.4840307766572, -1482.4776429357007, -2454.7674836660735, -0.01600000075995922, -0.04800000227987766, 0.9760000463575125, 0.0, 0.0, 0.0, 0.0, 0.0, 1.6511848088951924E9, 0.0, 2022-04-28 15:26:48.895
16.0, -25.476198498159647, 753.2906490750611, -1642.384545341134, -2391.32382081775, -0.01600000075995922, -0.04800000227987766, 0.9760000463575125, 0.0, 0.0, 0.0, 0.0, 0.0, 1.6511848088951924E9, 0.0, 2022-04-28 15:26:48.895
17.0, -79.47661395836622, 962.6558584445156, -1861.0060071009211, -2545.374039892573, -0.01600000075995922, -0.04800000227987766, 0.9760000463575125, 0.0, 0.0, 0.0, 0.0, 0.0, 1.65118480890877E9, 0.0, 2022-04-28 15:26:48.908
17.0, -68.07739889342338, 1043.142245390918, -1645.0043452600949, -2642.218749245163, -0.01600000075995922, -0.04800000227987766, 0.9760000463575125, 0.0, 0.0, 0.0, 0.0, 0.0, 1.65118480890877E9, 0.0, 2022-04-28 15:26:48.908
18.0, 13.100869544781744, 1014.3842846816406, -1764.3258533463813, -2801.2075062114745, -0.01600000075995922, -0.04800000227987766, 0.9760000463575125, 0.0, 0.0, 0.0, 0.0, 0.0, 1.6511848089244425E9, 0.0, 2022-04-28 15:26:48.924
18.0, -52.79990757443011, 1104.4092864650302, -1985.026699481532, -2962.658987298608, -0.01600000075995922, -0.04800000227987766, 0.9760000463575125, 0.0, 0.0, 0.0, 0.0, 0.0, 1.6511848089244425E9, 0.0, 2022-04-28 15:26:48.924
19.0, -113.19555195886642, 1254.0744728418067, -2035.5396582330577, -3194.016678357497, -0.01600000075995922, -0.04800000227987766, 0.9760000463575125, 0.0, 0.0, 0.0, 0.0, 0.0, 1.6511848089251668E9, 0.0, 2022-04-28 15:26:48.925
19.0, 27.72013847157359, 1137.2605676758103, -2204.7850908278488, -3302.57288442133, -0.01600000075995922, -0.04800000227987766, 0.9760000463575125, 0.0, 0.0, 0.0, 0.0, 0.0, 1.6511848089251668E9, 0.0, 2022-04-28 15:26:48.925
20.0, -48.551381224766374, 1121.9381975573488, -2029.2715859073214, -3428.132545633707, -0.01600000075995922, -0.04800000227987766, 0.9920000471174717, 0.0, 0.0, 0.0, 0.0, 0.0, 1.6511848089387217E9, 0.0, 2022-04-28 15:26:48.938
20.0, -111.2021852824837, 1263.9029299253598, -2150.8202044172212, -3632.607835811097, -0.01600000075995922, -0.04800000227987766, 0.9920000471174717, 0.0, 0.0, 0.0, 0.0, 0.0, 1.6511848089387217E9, 0.0, 2022-04-28 15:26:48.938
21.0, 4.83195074275136, 1488.0201746700332, -1977.0438830261119, -3424.3066279790364, -0.01600000075995922, -0.04800000227987766, 0.9920000471174717, 0.0, 0.0, 0.0, 0.0, 0.0, 1.6511848089544992E9, 0.0, 2022-04-28 15:26:48.954
21.0, -26.459792186506093, 1242.9819295732304, -2127.713232540991, -3368.641957038548, -0.01600000075995922, -0.04800000227987766, 0.9920000471174717, 0.0, 0.0, 0.0, 0.0, 0.0, 1.6511848089544992E9, 0.0, 2022-04-28 15:26:48.954
22.0, -77.21771438512951, 1449.224322479684, -2348.930184870027, -3526.450775568839, -0.01600000075995922, -0.04800000227987766, 0.9920000471174717, 0.0, 0.0, 0.0, 0.0, 0.0, 1.6511848089551833E9, 0.0, 2022-04-28 15:26:48.955
22.0, -67.66974979825318, 1538.4059768230654, -2142.4839674159884, -3616.82171809813, -0.01600000075995922, -0.04800000227987766, 0.9920000471174717, 0.0, 0.0, 0.0, 0.0, 0.0, 1.6511848089551833E9, 0.0, 2022-04-28 15:26:48.955
23.0, 15.67018081434071, 1502.194395502098, -2249.0598964532837, -3784.7450960585847, -0.01600000075995922, -0.04800000227987766, 0.9920000471174717, 0.0, 0.0, 0.0, 0.0, 0.0, 1.651184808968753E9, 0.0, 2022-04-28 15:26:48.968
23.0, -52.728849475272, 1594.3885392597876, -2476.817933804821, -3941.046734906733, -0.01600000075995922, -0.04800000227987766, 0.9920000471174717, 0.0, 0.0, 0.0, 0.0, 0.0, 1.651184808968753E9, 0.0, 2022-04-28 15:26:48.968
24.0, -110.29712949320674, 1747.4046759968624, -2528.415463543497, -4177.909558700398, -0.01600000075995922, -0.04800000227987766, 0.9920000471174717, 0.0, 0.0, 0.0, 0.0, 0.0, 1.6511848089844244E9, 0.0, 2022-04-28 15:26:48.984
24.0, 23.430473222397268, 1622.220874730032, -2695.9218426588923, -4289.480124128517, -0.01600000075995922, -0.04800000227987766, 0.9920000471174717, 0.0, 0.0, 0.0, 0.0, 0.0, 1.6511848089844244E9, 0.0, 2022-04-28 15:26:48.984
25.0, -49.78928811009973, 1611.6930563547648, -2517.7754481695592, -4407.040139335673, -0.01600000075995922, -0.04800000227987766, 0.9920000471174717, 0.0, 0.0, 0.0, 0.0, 0.0, 1.6511848089852128E9, 0.0, 2022-04-28 15:26:48.985
25.0, -110.73843768797815, 1751.2118941517547, -2641.6615041517653, -4615.10199357057, -0.01600000075995922, -0.04800000227987766, 0.9920000471174717, 0.0, 0.0, 0.0, 0.0, 0.0, 1.6511848089852128E9, 0.0, 2022-04-28 15:26:48.985
26.0, 1.9073489774018526, 1981.6794890211895, -2472.369322807528, -4407.313152032439, -0.01600000075995922, -0.04800000227987766, 0.9920000471174717, 0.0, 0.0, 0.0, 0.0, 0.0, 1.6511848089987571E9, 0.0, 2022-04-28 15:26:48.998
26.0, -25.117168102413416, 2218.20759176882, -2617.8140320843086, -4350.6424480038695, -0.01600000075995922, -0.04800000227987766, 0.9920000471174717, 0.0, 0.0, 0.0, 0.0, 0.0, 1.6511848089987571E9, 0.0, 2022-04-28 15:26:48.998
27.0, -76.56697179283947, 2427.3932859404013, -2836.64866814157, -4506.345702859107, -0.01600000075995922, -0.04800000227987766, 0.9920000471174717, 0.0, 0.0, 0.0, 0.0, 0.0, 1.6511848090144346E9, 0.0, 2022-04-28 15:26:49.014
27.0, -68.47382828872651, 2522.7532550105825, -2630.9616503785364, -4596.791443387512, -0.01600000075995922, -0.04800000227987766, 0.9920000471174717, 0.0, 0.0, 0.0, 0.0, 0.0, 1.6511848090144346E9, 0.0, 2022-04-28 15:26:49.014
28.0, 13.108349344693124, 2477.7678683935665, -2738.0013270103373, -4763.151543166488, -0.01600000075995922, -0.04800000227987766, 0.9920000471174717, 0.0, 0.0, 0.0, 0.0, 0.0, 1.6511848090151632E9, 0.0, 2022-04-28 15:26:49.015
28.0, -51.45728349033743, 2577.045382667333, -2963.6650203866884, -4922.052412483841, -0.01600000075995922, -0.04800000227987766, 0.9920000471174717, 0.0, 0.0, 0.0, 0.0, 0.0, 1.6511848090151632E9, 0.0, 2022-04-28 15:26:49.015
29.0, -112.64204676542431, 2728.12425122736, -3018.7107378845103, -5157.984001188539, -0.01600000075995922, -0.04800000227987766, 0.9920000471174717, 0.0, 0.0, 0.0, 0.0, 0.0, 1.651184809028788E9, 0.0, 2022-04-28 15:26:49.028
29.0, 29.133820654824376, 2601.923197172582, -3188.214223576244, -5266.304593555164, -0.01600000075995922, -0.04800000227987766, 0.9920000471174717, 0.0, 0.0, 0.0, 0.0, 0.0, 1.651184809028788E9, 0.0, 2022-04-28 15:26:49.028
30.0, -48.061454330570996, 2596.193670440465, -3005.953939135652, -5387.043523724657, -0.01600000075995922, -0.04800000227987766, 0.9920000471174717, 0.0, 0.0, 0.0, 0.0, 0.0, 1.6511848090444655E9, 0.0, 2022-04-28 15:26:49.044
30.0, -111.89406677428633, 2730.947875693906, -3129.8699143175036, -5593.19054918224, -0.01600000075995922, -0.04800000227987766, 0.9920000471174717, 0.0, 0.0, 0.0, 0.0, 0.0, 1.6511848090444655E9, 0.0, 2022-04-28 15:26:49.044
31.0, 1.2940053846687078, 2964.4111304278485, -2964.743981523905, -5380.173327506054, -0.01600000075995922, -0.04800000227987766, 0.9920000471174717, 0.0, 0.0, 0.0, 0.0, 0.0, 1.6511848090451863E9, 0.0, 2022-04-28 15:26:49.045
31.0, -31.508657126687467, 3198.571876503527, -3103.8533002757467, -5329.823054402601, -0.01600000075995922, -0.04800000227987766, 0.9920000471174717, 0.0, 0.0, 0.0, 0.0, 0.0, 1.6511848090451863E9, 0.0, 2022-04-28 15:26:49.045
32.0, -78.38830307126045, 3402.832122433465, -3328.4099832652137, -5487.175605138298, -0.01600000075995922, -0.04800000227987766, 0.9920000471174717, 0.0, 0.0, 0.0, 0.0, 0.0, 1.6511848090588105E9, 0.0, 2022-04-28 15:26:49.058
32.0, -65.48938812408596, 3510.7656351546757, -3126.3843275588006, -5575.833673487883, -0.01600000075995922, -0.04800000227987766, 0.9920000471174717, 0.0, 0.0, 0.0, 0.0, 0.0, 1.6511848090588105E9, 0.0, 2022-04-28 15:26:49.058
33.0, 11.27953826636076, 3460.66032549832, -3229.02588184271, -5748.080375797115, -0.01600000075995922, -0.04800000227987766, 0.9920000471174717, 0.0, 0.0, 0.0, 0.0, 0.0, 1.651184809074447E9, 0.0, 2022-04-28 15:26:49.074
33.0, -57.18307032249868, 3553.950259943027, -3456.3164316997863, -5904.150140848011, -0.01600000075995922, -0.04800000227987766, 0.9920000471174717, 0.0, 0.0, 0.0, 0.0, 0.0, 1.651184809074447E9, 0.0, 2022-04-28 15:26:49.074
34.0, -111.47145807929337, 3709.8423797460273, -3506.866789450869, -6138.155681075528, -0.01600000075995922, -0.04800000227987766, 0.9920000471174717, 0.0, 0.0, 0.0, 0.0, 0.0, 1.6511848090751836E9, 0.0, 2022-04-28 15:26:49.075
34.0, 27.877214269712567, 3584.318247583229, -3677.7802174258977, -6248.271425420884, -0.01600000075995922, -0.04800000227987766, 0.9920000471174717, 0.0, 0.0, 0.0, 0.0, 0.0, 1.6511848090751836E9, 0.0, 2022-04-28 15:26:49.075
35.0, -45.641739059239626, 3571.112660839688, -3496.327751375735, -6374.444430225994, -0.01600000075995922, -0.04800000227987766, 0.9920000471174717, 0.0, 0.0, 0.0, 0.0, 0.0, 1.6511848090888336E9, 0.0, 2022-04-28 15:26:49.088
35.0, -109.53045000229031, 3712.621125413105, -3615.542672313284, -6575.905361039098, -0.01600000075995922, -0.04800000227987766, 0.9920000471174717, 0.0, 0.0, 0.0, 0.0, 0.0, 1.6511848090888336E9, 0.0, 2022-04-28 15:26:49.088
36.0, 3.018099264241755, 3948.9304440133274, -3458.696878021583, -6360.917212086264, -0.01600000075995922, -0.04800000227987766, 0.9920000471174717, 0.0, 0.0, 0.0, 0.0, 0.0, 1.6511848091044312E9, 0.0, 2022-04-28 15:26:49.104
36.0, -28.707472059875727, 4174.096730695572, -3594.6272818110883, -6316.756473409478, -0.01600000075995922, -0.04800000227987766, 0.9920000471174717, 0.0, 0.0, 0.0, 0.0, 0.0, 1.6511848091044312E9, 0.0, 2022-04-28 15:26:49.104
37.0, -76.88112338911742, 4380.997345994227, -3813.013129873667, -6470.481321188156, -0.01600000075995922, -0.04800000227987766, 0.9920000471174717, 0.0, 0.0, 0.0, 0.0, 0.0, 1.6511848091051564E9, 0.0, 2022-04-28 15:26:49.105
37.0, -64.96206223033369, 4495.468203837983, -3618.6019104770385, -6554.3149185949005, -0.01600000075995922, -0.04800000227987766, 0.9920000471174717, 0.0, 0.0, 0.0, 0.0, 0.0, 1.6511848091051564E9, 0.0, 2022-04-28 15:26:49.105
38.0, 10.778391672298312, 4437.359508276451, -3715.536377428565, -6726.872032600455, -0.01600000075995922, -0.04800000227987766, 0.9920000471174717, 0.0, 0.0, 0.0, 0.0, 0.0, 1.6511848091187887E9, 0.0, 2022-04-28 15:26:49.118
38.0, -54.35196605604142, 4534.94284787029, -3941.32722740341, -6887.5007356973365, -0.01600000075995922, -0.04800000227987766, 0.9920000471174717, 0.0, 0.0, 0.0, 0.0, 0.0, 1.6511848091187887E9, 0.0, 2022-04-28 15:26:49.118
39.0, -110.22981129400432, 4692.712397451047, -3994.46559592383, -7121.543674924411, -0.01600000075995922, -0.04800000227987766, 0.9920000471174717, 0.0, 0.0, 0.0, 0.0, 0.0, 1.6511848091344297E9, 0.0, 2022-04-28 15:26:49.134
39.0, 30.16977294255048, 4564.151466524228, -4170.379270139616, -7227.848461214919, -0.01600000075995922, -0.04800000227987766, 0.9920000471174717, 0.0, 0.0, 0.0, 0.0, 0.0, 1.6511848091344297E9, 0.0, 2022-04-28 15:26:49.134
40.0, -49.53123501315713, 4554.72691863589, -3983.5076890536584, -7350.008553367574, -0.01600000075995922, -0.04800000227987766, 0.9920000471174717, 0.0, 0.0, 0.0, 0.0, 0.0, 1.651184809135187E9, 0.0, 2022-04-28 15:26:49.135
40.0, -106.69186593592167, 4690.4609776777215, -4100.415091718547, -7556.832500717137, -0.01600000075995922, -0.04800000227987766, 0.9920000471174717, 0.0, 0.0, 0.0, 0.0, 0.0, 1.651184809135187E9, 0.0, 2022-04-28 15:26:49.135
41.0, 5.385455936193466, 4932.623239708599, -3951.8008172293194, -7336.657110525761, -0.01600000075995922, -0.03200000151991844, 0.9920000471174717, 0.0, 0.0, 0.0, 0.0, 0.0, 1.651184809148746E9, 0.0, 2022-04-28 15:26:49.148
41.0, -27.74631777126342, 5157.5314732939005, -4083.7033487665467, -7298.315656180028, -0.01600000075995922, -0.03200000151991844, 0.9920000471174717, 0.0, 0.0, 0.0, 0.0, 0.0, 1.651184809148746E9, 0.0, 2022-04-28 15:26:49.148
42.0, -82.14690252672881, 5359.274766553659, -4297.922948278487, -7452.399534354452, -0.01600000075995922, -0.03200000151991844, 0.9920000471174717, 0.0, 0.0, 0.0, 0.0, 0.0, 1.6511848091644793E9, 0.0, 2022-04-28 15:26:49.164
42.0, -63.99342814181, 5483.353427383583, -4111.574953186326, -7530.552223728504, -0.01600000075995922, -0.03200000151991844, 0.9920000471174717, 0.0, 0.0, 0.0, 0.0, 0.0, 1.6511848091644793E9, 0.0, 2022-04-28 15:26:49.164
43.0, 7.887449006550014, 5406.2684794468805, -4207.047119255178, -7708.386336571537, -0.01600000075995922, -0.03200000151991844, 0.9920000471174717, 0.0, 0.0, 0.0, 0.0, 0.0, 1.6511848091651669E9, 0.0, 2022-04-28 15:26:49.165
43.0, -53.19259706977755, 5512.31147274049, -4428.907334376592, -7863.8651974294335, -0.01600000075995922, -0.03200000151991844, 0.9920000471174717, 0.0, 0.0, 0.0, 0.0, 0.0, 1.6511848091651669E9, 0.0, 2022-04-28 15:26:49.165
44.0, -109.17515950649977, 5671.3114494066685, -4484.704771765508, -8101.823811910115, -0.01600000075995922, -0.03200000151991844, 0.9920000471174717, 0.0, 0.0, 0.0, 0.0, 0.0, 1.6511848091787784E9, 0.0, 2022-04-28 15:26:49.178
44.0, 28.782270058989525, 5546.08276934037, -4661.89749176614, -8203.296647457872, -0.01600000075995922, -0.03200000151991844, 0.9920000471174717, 0.0, 0.0, 0.0, 0.0, 0.0, 1.6511848091787784E9, 0.0, 2022-04-28 15:26:49.178
45.0, -50.97857629600912, 5531.426101414021, -4472.826849506237, -8333.84533521114, -0.01600000075995922, -0.03200000151991844, 0.9920000471174717, 0.0, 0.0, 0.0, 0.0, 0.0, 1.651184809194422E9, 0.0, 2022-04-28 15:26:49.194
45.0, -109.62394750118256, 5667.7061858493835, -4589.805310270283, -8539.034946280066, -0.01600000075995922, -0.03200000151991844, 0.9920000471174717, 0.0, 0.0, 0.0, 0.0, 0.0, 1.651184809194422E9, 0.0, 2022-04-28 15:26:49.194
46.0, 7.618176209740341, 5427.28484724788, -4447.245933809318, -8316.817570712883, -0.01600000075995922, -0.03200000151991844, 0.9920000471174717, 0.0, 0.0, 0.0, 0.0, 0.0, 1.6511848091951897E9, 0.0, 2022-04-28 15:26:49.195
46.0, -24.387887611053884, 5643.5726114353165, -4572.0389155307785, -8275.405658503529, -0.01600000075995922, -0.03200000151991844, 0.9920000471174717, 0.0, 0.0, 0.0, 0.0, 0.0, 1.6511848091951897E9, 0.0, 2022-04-28 15:26:49.195
47.0, -80.34801064804196, 5846.232180184219, -4789.022301109973, -8437.320887185168, -0.01600000075995922, -0.03200000151991844, 0.9920000471174717, 0.0, 0.0, 0.0, 0.0, 0.0, 1.651184809208764E9, 0.0, 2022-04-28 15:26:49.208
47.0, -65.81849932018667, 5980.651664391626, -4610.22516402835, -8507.88905944908, -0.01600000075995922, -0.03200000151991844, 0.9920000471174717, 0.0, 0.0, 0.0, 0.0, 0.0, 1.651184809208764E9, 0.0, 2022-04-28 15:26:49.208
48.0, 10.45676027610898, 5897.7736114235595, -4698.872012678068, -8688.382241160609, -0.01600000075995922, -0.03200000151991844, 0.9920000471174717, 0.0, 0.0, 0.0, 0.0, 0.0, 1.651184809224433E9, 0.0, 2022-04-28 15:26:49.224
48.0, -53.98171596042812, 6004.325231111143, -4918.675282823853, -8849.231598354876, -0.01600000075995922, -0.03200000151991844, 0.9920000471174717, 0.0, 0.0, 0.0, 0.0, 0.0, 1.651184809224433E9, 0.0, 2022-04-28 15:26:49.224
49.0, -114.64289324171841, 6166.156312043779, -4974.824270808604, -9083.382994680665, -0.01600000075995922, -0.03200000151991844, 0.9920000471174717, 0.0, 0.0, 0.0, 0.0, 0.0, 1.6511848092251732E9, 0.0, 2022-04-28 15:26:49.225
49.0, 29.216098453849554, 6030.238997904118, -5154.320769181941, -9186.950174203608, -0.01600000075995922, -0.03200000151991844, 0.9920000471174717, 0.0, 0.0, 0.0, 0.0, 0.0, 1.6511848092251732E9, 0.0, 2022-04-28 15:26:49.225
50.0, -50.32783370371908, 6020.290864021983, -4969.880123067182, -9314.26758839516, -0.01600000075995922, -0.03200000151991844, 0.9920000471174717, 0.0, 0.0, 0.0, 0.0, 0.0, 1.6511848092387931E9, 0.0, 2022-04-28 15:26:49.238
50.0, -108.11676781903952, 6154.884253577329, -5077.7743668388575, -9525.269003995229, -0.01600000075995922, -0.03200000151991844, 0.9920000471174717, 0.0, 0.0, 0.0, 0.0, 0.0, 1.6511848092387931E9, 0.0, 2022-04-28 15:26:49.238
51.0, 5.460253935307264, 5920.173742208164, -4944.4450634685345, -9297.004210199695, -0.01600000075995922, -0.04800000227987766, 0.9920000471174717, 0.0, 0.0, 0.0, 0.0, 0.0, 1.65118480925491E9, 0.0, 2022-04-28 15:26:49.254
51.0, -29.687325848266482, 6130.862876161933, -5060.7335126907565, -9257.929735462647, -0.01600000075995922, -0.04800000227987766, 0.9920000471174717, 0.0, 0.0, 0.0, 0.0, 0.0, 1.65118480925491E9, 0.0, 2022-04-28 15:26:49.254
52.0, -81.69437463209033, 6329.027085164096, -5273.984478114173, -9414.612844106276, -0.01600000075995922, -0.04800000227987766, 0.9920000471174717, 0.0, 0.0, 0.0, 0.0, 0.0, 1.6511848092692125E9, 0.0, 2022-04-28 15:26:49.269
52.0, -60.42556358408183, 6476.1622292208485, -5102.745678842999, -9489.844671614934, -0.01600000075995922, -0.04800000227987766, 0.9920000471174717, 0.0, 0.0, 0.0, 0.0, 0.0, 1.6511848092692125E9, 0.0, 2022-04-28 15:26:49.269
53.0, 8.261439002119005, 6382.206592584029, -5186.7176525481045, -9670.62582562305, -0.01600000075995922, -0.04800000227987766, 0.9920000471174717, 0.0, 0.0, 0.0, 0.0, 0.0, 1.6511848092851632E9, 0.0, 2022-04-28 15:26:49.285
53.0, -55.694590140134096, 6493.709839812946, -5410.047648352105, -9829.994182434864, -0.01600000075995922, -0.04800000227987766, 0.9920000471174717, 0.0, 0.0, 0.0, 0.0, 0.0, 1.6511848092851632E9, 0.0, 2022-04-28 15:26:49.285
54.0, -108.59173511341214, 6657.193956525996, -5468.017967615277, -10065.129172449, -0.01600000075995922, -0.04800000227987766, 0.9920000471174717, 0.0, 0.0, 0.0, 0.0, 0.0, 1.6511848092858977E9, 0.0, 2022-04-28 15:26:49.285
54.0, 30.087495143525302, 6523.434564660769, -5643.883023131639, -10168.651473172475, -0.01600000075995922, -0.04800000227987766, 0.9920000471174717, 0.0, 0.0, 0.0, 0.0, 0.0, 1.6511848092858977E9, 0.0, 2022-04-28 15:26:49.285
55.0, -49.45643701404333, 6510.737604311202, -5454.1130195800215, -10297.225493749138, -0.01600000075995922, -0.04800000227987766, 0.9920000471174717, 0.0, 0.0, 0.0, 0.0, 0.0, 1.6511848092867472E9, 0.0, 2022-04-28 15:26:49.286
55.0, -110.89925338607281, 6646.052794557996, -5567.76670928346, -10500.608733139466, -0.01600000075995922, -0.04800000227987766, 0.9920000471174717, 0.0, 0.0, 0.0, 0.0, 0.0, 1.6511848092867472E9, 0.0, 2022-04-28 15:26:49.286
56.0, 9.551704486832023, 6411.712533284444, -5434.407486713491, -10276.562546493951, -0.01600000075995922, -0.04800000227987766, 0.9920000471174717, 0.0, 0.0, 0.0, 0.0, 0.0, 1.6511848092988188E9, 0.0, 2022-04-28 15:26:49.298
56.0, -30.9401923334226, 6617.18076690007, -5554.607871289365, -10234.368995193858, -0.01600000075995922, -0.04800000227987766, 0.9920000471174717, 0.0, 0.0, 0.0, 0.0, 0.0, 1.6511848092988188E9, 0.0, 2022-04-28 15:26:49.298
57.0, -78.3359444718808, 6822.1590736215, -5765.981406935025, -10397.08830236597, -0.01600000075995922, -0.04800000227987766, 0.9920000471174717, 0.0, 0.0, 0.0, 0.0, 0.0, 1.651184809330848E9, 0.0, 2022-04-28 15:26:49.330
57.0, -61.86916496697813, 6975.064883309882, -5594.641630365048, -10463.44160737982, -0.01600000075995922, -0.04800000227987766, 0.9920000471174717, 0.0, 0.0, 0.0, 0.0, 0.0, 1.651184809330848E9, 0.0, 2022-04-28 15:26:49.330
58.0, 8.609249697998166, 6871.067615292035, -5675.988194301259, -10652.843230785802, -0.01600000075995922, -0.04800000227987766, 0.9920000471174717, 0.0, 0.0, 0.0, 0.0, 0.0, 1.6511848093315544E9, 0.0, 2022-04-28 15:26:49.331
58.0, -54.82319345045835, 6982.1519937259145, -5900.507478291169, -10815.794411755167, -0.01600000075995922, -0.04800000227987766, 0.9920000471174717, 0.0, 0.0, 0.0, 0.0, 0.0, 1.6511848093315544E9, 0.0, 2022-04-28 15:26:49.331
59.0, -110.3868870921433, 7144.951708747074, -5957.359567467589, -11042.088278274052, -0.01600000075995922, -0.04800000227987766, 0.9920000471174717, 0.0, 0.0, 0.0, 0.0, 0.0, 1.6511848093323E9, 0.0, 2022-04-28 15:26:49.332
59.0, 30.850434734486043, 7014.756441539619, -6137.102899238002, -11143.19460362615, -0.01600000075995922, -0.04800000227987766, 0.9920000471174717, 0.0, 0.0, 0.0, 0.0, 0.0, 1.6511848093323E9, 0.0, 2022-04-28 15:26:49.332
60.0, -49.17968441732228, 6999.729523517657, -5943.955766026396, -11276.424799647648, -0.01600000075995922, -0.04800000227987766, 0.9760000463575125, 0.0, 0.0, 0.0, 0.0, 0.0, 1.65118480933304E9, 0.0, 2022-04-28 15:26:49.333
60.0, -114.65411294158548, 7139.809346308, -6049.7968047223985, -11483.618997092824, -0.01600000075995922, -0.04800000227987766, 0.9760000463575125, 0.0, 0.0, 0.0, 0.0, 0.0, 1.65118480933304E9, 0.0, 2022-04-28 15:26:49.333
61.0, 8.624209297820926, 6911.722197760362, -5926.378236234654, -11254.654842005577, -0.01600000075995922, -0.04800000227987766, 0.9760000463575125, 0.0, 0.0, 0.0, 0.0, 0.0, 1.6511848093594716E9, 0.0, 2022-04-28 15:26:49.359
61.0, -32.92981910984963, 7106.800989299081, -6039.880459989887, -11224.634665061254, -0.01600000075995922, -0.04800000227987766, 0.9760000463575125, 0.0, 0.0, 0.0, 0.0, 0.0, 1.6511848093594716E9, 0.0, 2022-04-28 15:26:49.359
62.0, -85.1537820911035, 7306.655633081216, -6246.373426193371, -11378.658704836387, -0.01600000075995922, -0.04800000227987766, 0.9760000463575125, 0.0, 0.0, 0.0, 0.0, 0.0, 1.6511848093601944E9, 0.0, 2022-04-28 15:26:49.360
62.0, -60.32832618523389, 7473.406552405562, -6091.676204426214, -11444.189231859986, -0.01600000075995922, -0.04800000227987766, 0.9760000463575125, 0.0, 0.0, 0.0, 0.0, 0.0, 1.6511848093601944E9, 0.0, 2022-04-28 15:26:49.360
63.0, 12.91387454699725, 7361.338580283336, -6164.6865313611925, -11633.688092664815, -0.01600000075995922, -0.04800000227987766, 0.9760000463575125, 0.0, 0.0, 0.0, 0.0, 0.0, 1.6511848093744557E9, 0.0, 2022-04-28 15:26:49.374
63.0, -54.27716805692762, 7474.764136089478, -6383.300513321068, -11790.906007002108, -0.01600000075995922, -0.04800000227987766, 0.9760000463575125, 0.0, 0.0, 0.0, 0.0, 0.0, 1.6511848093744557E9, 0.0, 2022-04-28 15:26:49.374
64.0, -110.03159659635276, 7640.537071575411, -6442.3292242717, -12020.307730384171, -0.01600000075995922, -0.04800000227987766, 0.9760000463575125, 0.0, 0.0, 0.0, 0.0, 0.0, 1.6511848093752356E9, 0.0, 2022-04-28 15:26:49.375
64.0, 30.54376293811947, 7502.820865557063, -6630.816442138515, -12126.29088527849, -0.01600000075995922, -0.04800000227987766, 0.9760000463575125, 0.0, 0.0, 0.0, 0.0, 0.0, 1.6511848093752356E9, 0.0, 2022-04-28 15:26:49.375
65.0, -46.67769134696573, 7493.594532366376, -6433.52175987605, -12259.154571104329, -0.01600000075995922, -0.04800000227987766, 0.9760000463575125, 0.0, 0.0, 0.0, 0.0, 0.0, 1.6511848094051054E9, 0.0, 2022-04-28 15:26:49.405
65.0, -109.49305100273341, 7622.559372488409, -6541.999428040814, -12467.627814334352, -0.01600000075995922, -0.04800000227987766, 0.9760000463575125, 0.0, 0.0, 0.0, 0.0, 0.0, 1.6511848094051054E9, 0.0, 2022-04-28 15:26:49.405
66.0, 10.0790303805843, 7406.006075404119, -6424.445022683591, -12232.451685420703, -0.01600000075995922, -0.04800000227987766, 0.9760000463575125, 0.0, 0.0, 0.0, 0.0, 0.0, 1.6511848094058409E9, 0.0, 2022-04-28 15:26:49.405
66.0, -27.865994569845498, 7591.353647258133, -6527.30349116493, -12205.221473843325, -0.01600000075995922, -0.04800000227987766, 0.9760000463575125, 0.0, 0.0, 0.0, 0.0, 0.0, 1.6511848094058409E9, 0.0, 2022-04-28 15:26:49.405
67.0, -82.75276631955057, 7790.250876651611, -6740.000951394904, -12358.30679872958, -0.01600000075995922, -0.04800000227987766, 0.9760000463575125, 0.0, 0.0, 0.0, 0.0, 0.0, 1.6511848094066024E9, 0.0, 2022-04-28 15:26:49.406
67.0, -60.09645238798112, 7963.737355796155, -6585.909593420569, -12419.203589708079, -0.01600000075995922, -0.04800000227987766, 0.9760000463575125, 0.0, 0.0, 0.0, 0.0, 0.0, 1.6511848094066024E9, 0.0, 2022-04-28 15:26:49.406
68.0, 8.325017301365733, 7842.499148982577, -6656.874195079785, -12615.254755235277, -0.01600000075995922, -0.04800000227987766, 0.9760000463575125, 0.0, 0.0, 0.0, 0.0, 0.0, 1.6511848094188385E9, 0.0, 2022-04-28 15:26:49.418
68.0, -52.36981907952577, 7960.319087236654, -6884.718250130303, -12771.021588389762, -0.01600000075995922, -0.04800000227987766, 0.9760000463575125, 0.0, 0.0, 0.0, 0.0, 0.0, 1.6511848094188385E9, 0.0, 2022-04-28 15:26:49.418
69.0, -111.52381667867303, 8135.303396313451, -6931.483829126228, -13001.724796956405, -0.01600000075995922, -0.04800000227987766, 0.9760000463575125, 0.0, 0.0, 0.0, 0.0, 0.0, 1.6511848094508047E9, 0.0, 2022-04-28 15:26:49.450
69.0, 28.367141163907945, 7990.156009083148, -7126.21294001909, -13105.067582482006, -0.01600000075995922, -0.04800000227987766, 0.9760000463575125, 0.0, 0.0, 0.0, 0.0, 0.0, 1.6511848094508047E9, 0.0, 2022-04-28 15:26:49.450
70.0, -48.18113112915307, 7978.113531225827, -6924.733309706207, -13235.683588434476, -0.01600000075995922, -0.04800000227987766, 0.9920000471174717, 0.0, 0.0, 0.0, 0.0, 0.0, 1.651184809451562E9, 0.0, 2022-04-28 15:26:49.451
70.0, -109.85582129843533, 8116.181287840009, -7027.376733940095, -13447.032814730424, -0.01600000075995922, -0.04800000227987766, 0.9920000471174717, 0.0, 0.0, 0.0, 0.0, 0.0, 1.651184809451562E9, 0.0, 2022-04-28 15:26:49.451
71.0, 9.076737192459404, 7898.651876867283, -6915.907145810779, -13208.285081359092, -0.01600000075995922, -0.04800000227987766, 0.9920000471174717, 0.0, 0.0, 0.0, 0.0, 0.0, 1.6511848094522808E9, 0.0, 2022-04-28 15:26:49.452
71.0, -29.152520154602826, 8078.849606482312, -7013.3764184559695, -13188.063442298677, -0.01600000075995922, -0.04800000227987766, 0.9920000471174717, 0.0, 0.0, 0.0, 0.0, 0.0, 1.6511848094522808E9, 0.0, 2022-04-28 15:26:49.452
72.0, -80.39288944751024, 8278.36391936848, -7226.219734784216, -13342.640987267252, -0.01600000075995922, -0.04800000227987766, 0.9920000471174717, 0.0, 0.0, 0.0, 0.0, 0.0, 1.6511848094530177E9, 0.0, 2022-04-28 15:26:49.453
72.0, -56.120938735082746, 8459.37507722387, -7077.764406043105, -13399.745519690681, -0.01600000075995922, -0.04800000227987766, 0.9920000471174717, 0.0, 0.0, 0.0, 0.0, 0.0, 1.6511848094530177E9, 0.0, 2022-04-28 15:26:49.453
73.0, 8.44469409994781, 8330.657070498914, -7140.800419796258, -13595.512452821247, -0.01600000075995922, -0.04800000227987766, 0.9920000471174717, 0.0, 0.0, 0.0, 0.0, 0.0, 1.651184809463748E9, 0.0, 2022-04-28 15:26:49.463
73.0, -52.6166524766013, 8445.3616720899, -7366.800704168621, -13755.453014326282, -0.01600000075995922, -0.04800000227987766, 0.9920000471174717, 0.0, 0.0, 0.0, 0.0, 0.0, 1.651184809463748E9, 0.0, 2022-04-28 15:26:49.463
74.0, -111.6434934772551, 8623.610913828015, -7423.555555946194, -13980.86800435558, -0.01600000075995922, -0.04800000227987766, 0.9920000471174717, 0.0, 0.0, 0.0, 0.0, 0.0, 1.651184809478762E9, 0.0, 2022-04-28 15:26:49.478
74.0, 29.38813385181129, 8477.199440412689, -7613.1610038997605, -14080.444710625801, -0.01600000075995922, -0.04800000227987766, 0.9920000471174717, 0.0, 0.0, 0.0, 0.0, 0.0, 1.651184809478762E9, 0.0, 2022-04-28 15:26:49.478
75.0, -49.41155821457505, 8468.515392715577, -7414.336702555418, -14214.041416842956, -0.01600000075995922, -0.04800000227987766, 0.9920000471174717, 0.0, 0.0, 0.0, 0.0, 0.0, 1.651184809494516E9, 0.0, 2022-04-28 15:26:49.494
75.0, -111.26576358173043, 8603.262118169107, -7514.9643207131885, -14430.641462676693, -0.01600000075995922, -0.04800000227987766, 0.9920000471174717, 0.0, 0.0, 0.0, 0.0, 0.0, 1.651184809494516E9, 0.0, 2022-04-28 15:26:49.494
76.0, 9.948133882135153, 8389.035038857255, -7411.640234687366, -14187.405849358533, -0.01600000075995922, -0.04800000227987766, 0.9920000471174717, 0.0, 0.0, 0.0, 0.0, 0.0, 1.6511848094952128E9, 0.0, 2022-04-28 15:26:49.495
76.0, -29.82196224667132, 8565.896777711809, -7504.041942892596, -14162.041847859044, -0.01600000075995922, -0.04800000227987766, 0.9920000471174717, 0.0, 0.0, 0.0, 0.0, 0.0, 1.6511848094952128E9, 0.0, 2022-04-28 15:26:49.495
77.0, -80.98005374055356, 8766.824772781227, -7712.139326177072, -14322.681770655792, -0.01600000075995922, -0.04800000227987766, 0.9920000471174717, 0.0, 0.0, 0.0, 0.0, 0.0, 1.651184809508728E9, 0.0, 2022-04-28 15:26:49.508
77.0, -57.91983061376959, 8963.502371551003, -7577.787160168868, -14377.183332710061, -0.01600000075995922, -0.04800000227987766, 0.9920000471174717, 0.0, 0.0, 0.0, 0.0, 0.0, 1.651184809508728E9, 0.0, 2022-04-28 15:26:49.508
78.0, 6.683201220817864, 8817.363910832442, -7633.23117701197, -14574.068495927379, -0.01600000075995922, -0.04800000227987766, 0.9920000471174717, 0.0, 0.0, 0.0, 0.0, 0.0, 1.6511848095412333E9, 0.0, 2022-04-28 15:26:49.541
78.0, -53.25617536902428, 8937.940155353863, -7858.801372889429, -14730.875021269545, -0.01600000075995922, -0.04800000227987766, 0.9920000471174717, 0.0, 0.0, 0.0, 0.0, 0.0, 1.6511848095412333E9, 0.0, 2022-04-28 15:26:49.541
79.0, -108.61043461319059, 9116.843879584223, -7912.953254297841, -14962.666540723294, -0.01600000075995922, -0.04800000227987766, 0.9920000471174717, 0.0, 0.0, 0.0, 0.0, 0.0, 1.6511848095420046E9, 0.0, 2022-04-28 15:26:49.542
79.0, 28.254944165237248, 8968.532536991406, -8106.249983507674, -15065.68395495275, -0.01600000075995922, -0.04800000227987766, 0.9920000471174717, 0.0, 0.0, 0.0, 0.0, 0.0, 1.6511848095420046E9, 0.0, 2022-04-28 15:26:49.542
80.0, -47.234936440363526, 8961.546403874177, -7903.633423608262, -15197.702423388604, -0.01600000075995922, -0.04800000227987766, 0.9760000463575125, 0.0, 0.0, 0.0, 0.0, 0.0, 1.6511848095427155E9, 0.0, 2022-04-28 15:26:49.542
80.0, -111.07128878403455, 9094.023010054603, -8003.640218373388, -15412.91496633878, -0.01600000075995922, -0.04800000227987766, 0.9760000463575125, 0.0, 0.0, 0.0, 0.0, 0.0, 1.6511848095427155E9, 0.0, 2022-04-28 15:26:49.542
81.0, 9.731219684705138, 8885.858308570925, -7905.028406291734, -15654.368517328054, -0.01600000075995922, -0.04800000227987766, 0.9760000463575125, 0.0, 0.0, 0.0, 0.0, 0.0, 1.6511848095544572E9, 0.0, 2022-04-28 15:26:49.554
81.0, -32.98217770922929, 9056.79230599571, -7994.987959825899, -15633.870125670917, -0.01600000075995922, -0.04800000227987766, 0.9760000463575125, 0.0, 0.0, 0.0, 0.0, 0.0, 1.6511848095544572E9, 0.0, 2022-04-28 15:26:49.554
82.0, -81.67193523235619, 9251.777600035537, -8200.646928339265, -15794.345492869616, -0.01600000075995922, -0.04800000227987766, 0.9760000463575125, 0.0, 0.0, 0.0, 0.0, 0.0, 1.6511848095551825E9, 0.0, 2022-04-28 15:26:49.555
82.0, -53.40577136725187, 9457.172905602027, -8068.7855357015505, -15842.350848700851, -0.01600000075995922, -0.04800000227987766, 0.9760000463575125, 0.0, 0.0, 0.0, 0.0, 0.0, 1.6511848095551825E9, 0.0, 2022-04-28 15:26:49.555
83.0, 8.03704500477761, 9306.991613031365, -8119.909968095832, -16048.335188510362, -0.01600000075995922, -0.04800000227987766, 0.9760000463575125, 0.0, 0.0, 0.0, 0.0, 0.0, 1.6511848095851812E9, 0.0, 2022-04-28 15:26:49.585
83.0, -54.66237775236368, 9430.526118417736, -8349.24624322867, -16200.825869303662, -0.01600000075995922, -0.04800000227987766, 0.9760000463575125, 0.0, 0.0, 0.0, 0.0, 0.0, 1.6511848095851812E9, 0.0, 2022-04-28 15:26:49.585
84.0, -109.3845939040184, 9610.140423639677, -8405.746781809255, -16434.218065938447, -0.01600000075995922, -0.04800000227987766, 0.9760000463575125, 0.0, 0.0, 0.0, 0.0, 0.0, 1.6511848095859442E9, 0.0, 2022-04-28 15:26:49.585
84.0, 25.528557097539306, 9455.725564319175, -8595.486866161227, -16532.044499029405, -0.01600000075995922, -0.04800000227987766, 0.9760000463575125, 0.0, 0.0, 0.0, 0.0, 0.0, 1.6511848095859442E9, 0.0, 2022-04-28 15:26:49.585
85.0, -49.49757591355592, 9450.153113385197, -8391.206050781533, -16670.072986694053, -0.01600000075995922, -0.04800000227987766, 0.9760000463575125, 0.0, 0.0, 0.0, 0.0, 0.0, 1.651184809586646E9, 0.0, 2022-04-28 15:26:49.586
85.0, -110.67859928868711, 9579.832274398766, -8494.672253005672, -16880.89488709625, -0.01600000075995922, -0.04800000227987766, 0.9760000463575125, 0.0, 0.0, 0.0, 0.0, 0.0, 1.651184809586646E9, 0.0, 2022-04-28 15:26:49.586
86.0, 10.06781068071723, 9376.099354362581, -8400.78767446801, -16637.169346883893, -0.01600000075995922, -0.04800000227987766, 0.9760000463575125, 0.0, 0.0, 0.0, 0.0, 0.0, 1.6511848095987575E9, 0.0, 2022-04-28 15:26:49.598
86.0, -30.5325432382524, 9544.561277916655, -8481.176824015565, -16619.43474129401, -0.01600000075995922, -0.04800000227987766, 0.9760000463575125, 0.0, 0.0, 0.0, 0.0, 0.0, 1.6511848095987575E9, 0.0, 2022-04-28 15:26:49.598
87.0, -84.37588290032, 9739.314698159229, -8693.485334650148, -16781.798757970333, -0.01600000075995922, -0.04800000227987766, 0.9760000463575125, 0.0, 0.0, 0.0, 0.0, 0.0, 1.6511848096144795E9, 0.0, 2022-04-28 15:26:49.614
87.0, -59.393351196311414, 9954.100892514456, -8558.882595344912, -16820.906891806982, -0.01600000075995922, -0.04800000227987766, 0.9760000463575125, 0.0, 0.0, 0.0, 0.0, 0.0, 1.6511848096144795E9, 0.0, 2022-04-28 15:26:49.614
88.0, 6.496206223033369, 9793.930327162147, -8609.599378644023, -17030.100065778475, -0.01600000075995922, -0.04800000227987766, 0.9760000463575125, 0.0, 0.0, 0.0, 0.0, 0.0, 1.6511848096151989E9, 0.0, 2022-04-28 15:26:49.615
88.0, -55.773128039203584, 9920.322116114665, -8835.019978523254, -17185.863159033004, -0.01600000075995922, -0.04800000227987766, 0.9760000463575125, 0.0, 0.0, 0.0, 0.0, 0.0, 1.6511848096151989E9, 0.0, 2022-04-28 15:26:49.615
89.0, -112.47749116737396, 10100.815297826193, -8893.020216986071, -17413.43981123669, -0.01600000075995922, -0.04800000227987766, 0.9760000463575125, 0.0, 0.0, 0.0, 0.0, 0.0, 1.65118480962874E9, 0.0, 2022-04-28 15:26:49.628
89.0, 26.235398189164698, 9952.06638693856, -9091.03296004003, -17511.808529821225, -0.01600000075995922, -0.04800000227987766, 0.9760000463575125, 0.0, 0.0, 0.0, 0.0, 0.0, 1.65118480962874E9, 0.0, 2022-04-28 15:26:49.628
90.0, -51.52086178958416, 9945.117652820889, -8884.889674482401, -17652.16323525831, -0.01600000075995922, -0.04800000227987766, 0.9760000463575125, 0.0, 0.0, 0.0, 0.0, 0.0, 1.6511848096444087E9, 0.0, 2022-04-28 15:26:49.644
90.0, -109.47061160299927, 10071.382285174914, -8979.821425007656, -17868.22473549843, -0.01600000075995922, -0.04800000227987766, 0.9760000463575125, 0.0, 0.0, 0.0, 0.0, 0.0, 1.6511848096444087E9, 0.0, 2022-04-28 15:26:49.644
91.0, 11.354336265474558, 9874.209149661008, -8896.030836450402, -18102.830529668834, -0.01600000075995922, -0.04800000227987766, 0.9760000463575125, 0.0, 0.0, 0.0, 0.0, 0.0, 1.6511848096451333E9, 0.0, 2022-04-28 15:26:49.645
91.0, -33.08315500803292, 10030.561277158558, -8971.243964459281, -18091.67440810101, -0.01600000075995922, -0.04800000227987766, 0.9760000463575125, 0.0, 0.0, 0.0, 0.0, 0.0, 1.6511848096451333E9, 0.0, 2022-04-28 15:26:49.645
92.0, -90.90948812291026, 10228.52727146307, -9174.139146905392, -18248.918501737993, -0.01600000075995922, -0.04800000227987766, 0.9760000463575125, 0.0, 0.0, 0.0, 0.0, 0.0, 1.6511848096587577E9, 0.0, 2022-04-28 15:26:49.658
92.0, -53.53292796574533, 10453.336397699546, -9056.164002803154, -18291.99466942763, -0.01600000075995922, -0.04800000227987766, 0.9760000463575125, 0.0, 0.0, 0.0, 0.0, 0.0, 1.6511848096587577E9, 0.0, 2022-04-28 15:26:49.658
93.0, 7.173128115013242, 10278.561523020267, -9097.804048909806, -18504.48643516004, -0.01600000075995922, -0.04800000227987766, 0.9760000463575125, 0.0, 0.0, 0.0, 0.0, 0.0, 1.6511848096744928E9, 0.0, 2022-04-28 15:26:49.674
93.0, -54.475382754579186, 10407.92653243756, -9324.982401768211, -18656.00474196486, -0.01600000075995922, -0.04800000227987766, 0.9760000463575125, 0.0, 0.0, 0.0, 0.0, 0.0, 1.6511848096744928E9, 0.0, 2022-04-28 15:26:49.674
94.0, -106.40763353928924, 10590.181207028218, -9386.524325489067, -18881.763802790083, -0.01600000075995922, -0.04800000227987766, 0.9760000463575125, 0.0, 0.0, 0.0, 0.0, 0.0, 1.6511848096752002E9, 0.0, 2022-04-28 15:26:49.675
94.0, 30.427826039493084, 10437.400683988351, -9582.69329786487, -18984.089335527737, -0.01600000075995922, -0.04800000227987766, 0.9760000463575125, 0.0, 0.0, 0.0, 0.0, 0.0, 1.6511848096752002E9, 0.0, 2022-04-28 15:26:49.675
95.0, -50.03238160721958, 10435.497074910905, -9369.530220090412, -19120.756499608513, -0.01600000075995922, -0.04800000227987766, 0.9760000463575125, 0.0, 0.0, 0.0, 0.0, 0.0, 1.6511848096887605E9, 0.0, 2022-04-28 15:26:49.688
95.0, -112.0511425724253, 10558.033027009107, -9472.237222623546, -19333.306233790237, -0.01600000075995922, -0.04800000227987766, 0.9760000463575125, 0.0, 0.0, 0.0, 0.0, 0.0, 1.6511848096887605E9, 0.0, 2022-04-28 15:26:49.688
96.0, 11.002785669639707, 10363.571318963077, -9390.208126945421, -19571.24801872112, -0.01600000075995922, -0.04800000227987766, 0.9760000463575125, 0.0, 0.0, 0.0, 0.0, 0.0, 1.6511848097044718E9, 0.0, 2022-04-28 15:26:49.704
96.0, -34.822208487428725, 10514.92320021987, -9460.854837108403, -19560.914675143547, -0.01600000075995922, -0.04800000227987766, 0.9760000463575125, 0.0, 0.0, 0.0, 0.0, 0.0, 1.6511848097044718E9, 0.0, 2022-04-28 15:26:49.704
97.0, -85.5240321867168, 10714.871341500897, -9662.7215470667, -19722.545671428554, -0.01600000075995922, -0.04800000227987766, 0.9760000463575125, 0.0, 0.0, 0.0, 0.0, 0.0, 1.6511848097052E9, 0.0, 2022-04-28 15:26:49.705
97.0, -49.243262716569006, 10954.785923658404, -9549.256722311024, -19752.74536357075, -0.01600000075995922, -0.04800000227987766, 0.9760000463575125, 0.0, 0.0, 0.0, 0.0, 0.0, 1.6511848097052E9, 0.0, 2022-04-28 15:26:49.705
98.0, 4.43552134744823, 10762.613034385256, -9589.673821132164, -19969.54175415216, -0.01600000075995922, -0.04800000227987766, 0.9760000463575125, 0.0, 0.0, 0.0, 0.0, 0.0, 1.651184809718808E9, 0.0, 2022-04-28 15:26:49.718
98.0, -59.19887639861554, 10898.646285423543, -9813.628380228765, -20130.854858940933, -0.01600000075995922, -0.04800000227987766, 0.9760000463575125, 0.0, 0.0, 0.0, 0.0, 0.0, 1.651184809718808E9, 0.0, 2022-04-28 15:26:49.718
99.0, -108.51693711429834, 11083.668485981412, -9876.752281630877, -20356.116513072047, -0.01600000075995922, -0.04800000227987766, 0.9760000463575125, 0.0, 0.0, 0.0, 0.0, 0.0, 1.6511848097344627E9, 0.0, 2022-04-28 15:26:49.734
99.0, 25.663193495944142, 10925.726901002694, -10071.735705720726, -20455.81289614085, -0.01600000075995922, -0.04800000227987766, 0.9760000463575125, 0.0, 0.0, 0.0, 0.0, 0.0, 1.6511848097344627E9, 0.0, 2022-04-28 15:26:49.734
100.0, -49.47513651382178, 10921.80748584913, -9857.936844953801, -20592.925108316354, -0.01600000075995922, -0.04800000227987766, 0.9760000463575125, 0.0, 0.0, 0.0, 0.0, 0.0, 1.651184809735217E9, 0.0, 2022-04-28 15:26:49.735
100.0, -111.22836458217353, 11052.272025853395, -9956.877768231556, -20806.544453885406, -0.01600000075995922, -0.04800000227987766, 0.9760000463575125, 0.0, 0.0, 0.0, 0.0, 0.0, 1.651184809735217E9, 0.0, 2022-04-28 15:26:49.735
0.0, 65.24816457694396, 394.1013075807132, -103.4026239248924, 96.06868011178449, -0.01600000075995922, -0.04800000227987766, 0.9760000463575125, 0.0, 0.0, 0.0, 0.0, 0.0, 1.6511848097494876E9, 0.0, 2022-04-28 15:26:49.749
1.0, 19.441869919653982, 536.4325501443818, -168.0991532583721, 101.31575974961743, -0.01600000075995922, -0.04800000227987766, 0.9760000463575125, 0.0, 0.0, 0.0, 0.0, 0.0, 1.651184809750184E9, 0.0, 2022-04-28 15:26:49.750
1.0, -28.125917616765946, 734.5481404471211, -374.7417154600844, -62.90698720468208, -0.01600000075995922, -0.04800000227987766, 0.9760000463575125, 0.0, 0.0, 0.0, 0.0, 0.0, 1.651184809750184E9, 0.0, 2022-04-28 15:26:49.750
2.0, -0.5179761438630521, 977.8136729649268, -266.63242744095623, -96.03502101218328, -0.01600000075995922, -0.04800000227987766, 0.9760000463575125, 0.0, 0.0, 0.0, 0.0, 0.0, 1.6511848097637696E9, 0.0, 2022-04-28 15:26:49.763
2.0, 57.43177366955206, 781.7101488383487, -299.5921657504514, -307.38237735815346, -0.01600000075995922, -0.04800000227987766, 0.9760000463575125, 0.0, 0.0, 0.0, 0.0, 0.0, 1.6511848097637696E9, 0.0, 2022-04-28 15:26:49.763
3.0, -4.362593298312277, 919.112203260418, -524.5116190356202, -467.69318895880133, -0.01600000075995922, -0.04800000227987766, 0.9760000463575125, 0.0, 0.0, 0.0, 0.0, 0.0, 1.6511848097791743E9, 0.0, 2022-04-28 15:26:49.779
3.0, -52.682100725825876, 1110.5071933427826, -585.9114265581593, -693.1530577875674, -0.01600000075995922, -0.04800000227987766, 0.9760000463575125, 0.0, 0.0, 0.0, 0.0, 0.0, 1.6511848097791743E9, 0.0, 2022-04-28 15:26:49.779
4.0, 79.44108490878716, 947.7822763207369, -783.5576594164595, -791.3385212742724, -0.01600000075995922, -0.04800000227987766, 0.9760000463575125, 0.0, 0.0, 0.0, 0.0, 0.0, 1.6511848098114836E9, 0.0, 2022-04-28 15:26:49.811
4.0, 1.247256635222584, 940.7811836036853, -569.2913111550733, -932.2055930052884, -0.01600000075995922, -0.04800000227987766, 0.9760000463575125, 0.0, 0.0, 0.0, 0.0, 0.0, 1.6511848098114836E9, 0.0, 2022-04-28 15:26:49.811
5.0, -57.30087717110291, 1070.026516222395, -669.567378717009, -1147.5378127540462, -0.01600000075995922, -0.04800000227987766, 0.9760000463575125, 0.0, 0.0, 0.0, 0.0, 0.0, 1.6511848098122244E9, 0.0, 2022-04-28 15:26:49.812
5.0, 62.92568670446053, 878.3248543436639, -599.1319729015231, -1374.701206012629, -0.01600000075995922, -0.04800000227987766, 0.9760000463575125, 0.0, 0.0, 0.0, 0.0, 0.0, 1.6511848098122244E9, 0.0, 2022-04-28 15:26:49.812
6.0, 16.902477849740535, 1021.5611526966095, -656.2028462253511, -1369.7233991716057, -0.01600000075995922, -0.04800000227987766, 0.9760000463575125, 0.0, 0.0, 0.0, 0.0, 0.0, 1.6511848098130076E9, 0.0, 2022-04-28 15:26:49.813
6.0, -30.31749899080023, 1217.3841843265109, -860.9044003500603, -1535.84227540344, -0.01600000075995922, -0.04800000227987766, 0.9760000463575125, 0.0, 0.0, 0.0, 0.0, 0.0, 1.6511848098130076E9, 0.0, 2022-04-28 15:26:49.813
7.0, 2.2645094231702387, 983.1112412521616, -761.7409530249424, -1561.5279082991183, -0.01600000075995922, -0.04800000227987766, 0.9760000463575125, 0.0, 0.0, 0.0, 0.0, 0.0, 1.6511848098137324E9, 0.0, 2022-04-28 15:26:49.813
7.0, 59.144647849258035, 775.9226536569186, -785.1751661472954, -1781.903383138124, -0.01600000075995922, -0.04800000227987766, 0.9760000463575125, 0.0, 0.0, 0.0, 0.0, 0.0, 1.6511848098137324E9, 0.0, 2022-04-28 15:26:49.813
8.0, -1.9428780269809067, 920.2771820966154, -1014.5675397794694, -1938.8856837782077, -0.01600000075995922, -0.04800000227987766, 0.9760000463575125, 0.0, 0.0, 0.0, 0.0, 0.0, 1.651184809840125E9, 0.0, 2022-04-28 15:26:49.840
8.0, -52.42030772892758, 1109.69376510242, -1080.144815552514, -2163.919204012025, -0.01600000075995922, -0.04800000227987766, 0.9760000463575125, 0.0, 0.0, 0.0, 0.0, 0.0, 1.651184809840125E9, 0.0, 2022-04-28 15:26:49.840
9.0, 78.0573219251819, 949.3249850524589, -1271.6501326835714, -2262.706791391596, -0.01600000075995922, -0.04800000227987766, 0.9760000463575125, 0.0, 0.0, 0.0, 0.0, 0.0, 1.6511848098409553E9, 0.0, 2022-04-28 15:26:49.840
9.0, 4.265355899464339, 943.4196830224246, -1057.241668223869, -2403.996471817605, -0.01600000075995922, -0.04800000227987766, 0.9760000463575125, 0.0, 0.0, 0.0, 0.0, 0.0, 1.6511848098409553E9, 0.0, 2022-04-28 15:26:49.840
10.0, -55.77125808922574, 1065.9818144203164, -1156.994149792008, -2619.994393758476, -0.01600000075995922, -0.04800000227987766, 0.9920000471174717, 0.0, 0.0, 0.0, 0.0, 0.0, 1.6511848098415728E9, 0.0, 2022-04-28 15:26:49.841
10.0, 70.22223151801154, 885.4100948097184, -1093.1147885988466, -2843.3468289622106, -0.01600000075995922, -0.04800000227987766, 0.9920000471174717, 0.0, 0.0, 0.0, 0.0, 0.0, 1.6511848098415728E9, 0.0, 2022-04-28 15:26:49.841
11.0, 18.548033830244094, 1026.163099592086, -1143.741814299021, -2844.2182256518863, -0.01600000075995922, -0.04800000227987766, 0.9920000471174717, 0.0, 0.0, 0.0, 0.0, 0.0, 1.6511848098537493E9, 0.0, 2022-04-28 15:26:49.853
11.0, -33.12616385752335, 1220.2994363419712, -1345.4439686592668, -3009.039356599096, -0.01600000075995922, -0.04800000227987766, 0.9920000471174717, 0.0, 0.0, 0.0, 0.0, 0.0, 1.6511848098537493E9, 0.0, 2022-04-28 15:26:49.853
12.0, 3.2855021110735834, 994.3290711692534, -1255.1253847293556, -3029.1674981606193, -0.01600000075995922, -0.04800000227987766, 0.9920000471174717, 0.0, 0.0, 0.0, 0.0, 0.0, 1.6511848098695004E9, 0.0, 2022-04-28 15:26:49.869
12.0, 58.28073095949367, 772.6446313457564, -1278.058451257646, -3249.711268497631, -0.01600000075995922, -0.04800000227987766, 0.9920000471174717, 0.0, 0.0, 0.0, 0.0, 0.0, 1.6511848098695004E9, 0.0, 2022-04-28 15:26:49.869
13.0, -2.286948822904378, 914.8113183113746, -1503.5762885357253, -3406.12510434445, -0.01600000075995922, -0.04800000227987766, 0.9920000471174717, 0.0, 0.0, 0.0, 0.0, 0.0, 1.6511848098702164E9, 0.0, 2022-04-28 15:26:49.870
13.0, -51.145001844037324, 1113.9179821023718, -1564.8676389595494, -3634.8125068349764, -0.01600000075995922, -0.04800000227987766, 0.9920000471174717, 0.0, 0.0, 0.0, 0.0, 0.0, 1.6511848098702164E9, 0.0, 2022-04-28 15:26:49.870
14.0, 81.88323957985267, 945.7028919453733, -1767.4467998594046, -3732.5005636275746, -0.01600000075995922, -0.04800000227987766, 0.9920000471174717, 0.0, 0.0, 0.0, 0.0, 0.0, 1.651184809883814E9, 0.0, 2022-04-28 15:26:49.883
14.0, 2.8703732159920037, 940.8709412026219, -1551.2656228207052, -3877.717139007058, -0.01600000075995922, -0.04800000227987766, 0.9920000471174717, 0.0, 0.0, 0.0, 0.0, 0.0, 1.651184809883814E9, 0.0, 2022-04-28 15:26:49.883
15.0, -57.577629767823964, 1067.5394827518612, -1645.8046838506125, -4091.429982075002, -0.01600000075995922, -0.04800000227987766, 0.9920000471174717, 0.0, 0.0, 0.0, 0.0, 0.0, 1.6511848098999023E9, 0.0, 2022-04-28 15:26:49.899
15.0, 68.3448017402552, 886.9939424409531, -1585.410909416154, -4311.136014821939, -0.01600000075995922, -0.04800000227987766, 0.9920000471174717, 0.0, 0.0, 0.0, 0.0, 0.0, 1.6511848098999023E9, 0.0, 2022-04-28 15:26:49.899
16.0, 16.30035395687446, 1022.653203483671, -1635.9893164169043, -4315.264864373021, -0.01600000075995922, -0.04800000227987766, 0.9920000471174717, 0.0, 0.0, 0.0, 0.0, 0.0, 1.6511848099308047E9, 0.0, 2022-04-28 15:26:49.930
16.0, -35.762793326284736, 1212.7167891818099, -1833.0091160326265, -4483.410766380839, -0.01600000075995922, -0.04800000227987766, 0.9920000471174717, 0.0, 0.0, 0.0, 0.0, 0.0, 1.6511848099308047E9, 0.0, 2022-04-28 15:26:49.930
17.0, 3.8838861039839685, 996.1597521975636, -1748.1358264381997, -4497.771982210688, -0.01600000075995922, -0.04800000227987766, 0.9920000471174717, 0.0, 0.0, 0.0, 0.0, 0.0, 1.6511848099314916E9, 0.0, 2022-04-28 15:26:49.931
17.0, 57.966579363215715, 768.753265441861, -1766.7268691179343, -4725.462701363023, -0.01600000075995922, -0.04800000227987766, 0.9920000471174717, 0.0, 0.0, 0.0, 0.0, 0.0, 1.6511848099314916E9, 0.0, 2022-04-28 15:26:49.931
18.0, -2.9676106148399413, 913.8520339727402, -1990.6066302154213, -4880.7770066228695, -0.01600000075995922, -0.04800000227987766, 0.9920000471174717, 0.0, 0.0, 0.0, 0.0, 0.0, 1.6511848099322584E9, 0.0, 2022-04-28 15:26:49.932
18.0, -51.934120734687895, 1111.2682629837655, -2056.4681383850984, -5108.260161327664, -0.01600000075995922, -0.04800000227987766, 0.9920000471174717, 0.0, 0.0, 0.0, 0.0, 0.0, 1.6511848099322584E9, 0.0, 2022-04-28 15:26:49.932
19.0, 81.54290868388489, 942.5969050321728, -2258.0936247962527, -5200.746017281897, -0.01600000075995922, -0.04800000227987766, 0.9920000471174717, 0.0, 0.0, 0.0, 0.0, 0.0, 1.6511848099330697E9, 0.0, 2022-04-28 15:26:49.933
19.0, 6.296121575403959, 939.2758738715202, -2040.1995735778473, -5341.411134415306, -0.01600000075995922, -0.04800000227987766, 0.9920000471174717, 0.0, 0.0, 0.0, 0.0, 0.0, 1.6511848099330697E9, 0.0, 2022-04-28 15:26:49.933
20.0, -59.64205454336479, 1065.8135189223103, -2129.790746966377, -5561.418229108676, -0.01600000075995922, -0.04800000227987766, 0.9920000471174717, 0.0, 0.0, 0.0, 0.0, 0.0, 1.6511848099601595E9, 0.0, 2022-04-28 15:26:49.960
20.0, 65.35662167565897, 888.7647850699723, -2079.591939811129, -5778.371695488226, -0.01600000075995922, -0.04800000227987766, 0.9920000471174717, 0.0, 0.0, 0.0, 0.0, 0.0, 1.6511848099601595E9, 0.0, 2022-04-28 15:26:49.960
21.0, 16.34523275634274, 1016.5777360056527, -2121.407761215698, -5785.888894399162, -0.01600000075995922, -0.04800000227987766, 0.9920000471174717, 0.0, 0.0, 0.0, 0.0, 0.0, 1.6511848099609568E9, 0.0, 2022-04-28 15:26:49.960
21.0, -35.022293135058135, 1212.1501943385229, -2321.370862096548, -5953.892680208664, -0.01600000075995922, -0.04800000227987766, 0.9920000471174717, 0.0, 0.0, 0.0, 0.0, 0.0, 1.6511848099609568E9, 0.0, 2022-04-28 15:26:49.960
22.0, 5.391065786127001, 1005.9638999314047, -2244.665514005348, -5966.181991463061, -0.01600000075995922, -0.04800000227987766, 0.9920000471174717, 0.0, 0.0, 0.0, 0.0, 0.0, 1.6511848099616306E9, 0.0, 2022-04-28 15:26:49.961
22.0, 60.56206993246451, 764.1625382462516, -2253.2934632031247, -6196.146569788456, -0.01600000075995922, -0.04800000227987766, 0.9920000471174717, 0.0, 0.0, 0.0, 0.0, 0.0, 1.6511848099616306E9, 0.0, 2022-04-28 15:26:49.961
23.0, -3.266802611295134, 905.9701948161237, -2480.8794651567005, -6352.511786935851, -0.01600000075995922, -0.04800000227987766, 0.9920000471174717, 0.0, 0.0, 0.0, 0.0, 0.0, 1.6511848099738E9, 0.0, 2022-04-28 15:26:49.973
23.0, -55.932073787320405, 1113.0204061130062, -2548.6932011032477, -6574.123298710212, -0.01600000075995922, -0.04800000227987766, 0.9920000471174717, 0.0, 0.0, 0.0, 0.0, 0.0, 1.6511848099738E9, 0.0, 2022-04-28 15:26:49.973
24.0, 79.57946120714769, 945.175566051621, -2748.8376871319488, -6670.042382823769, -0.01600000075995922, -0.04800000227987766, 0.9920000471174717, 0.0, 0.0, 0.0, 0.0, 0.0, 1.6511848100058248E9, 0.0, 2022-04-28 15:26:50.005
24.0, 5.742616381961852, 939.5096176187508, -2530.8576182145625, -6817.809569973033, -0.01600000075995922, -0.04800000227987766, 0.9920000471174717, 0.0, 0.0, 0.0, 0.0, 0.0, 1.6511848100058248E9, 0.0, 2022-04-28 15:26:50.005
25.0, -58.54252395639196, 1065.890186871402, -2620.4300921033137, -7036.230947085191, -0.01600000075995922, -0.04800000227987766, 0.9920000471174717, 0.0, 0.0, 0.0, 0.0, 0.0, 1.651184810006548E9, 0.0, 2022-04-28 15:26:50.006
25.0, 68.29618304083124, 892.9927419698797, -2577.0005038678646, -7255.540550436825, -0.01600000075995922, -0.04800000227987766, 0.9920000471174717, 0.0, 0.0, 0.0, 0.0, 0.0, 1.651184810006548E9, 0.0, 2022-04-28 15:26:50.006
26.0, 17.5457406421192, 1014.874211575836, -2608.9392494894564, -7262.818395750597, -0.01600000075995922, -0.04800000227987766, 0.9920000471174717, 0.0, 0.0, 0.0, 0.0, 0.0, 1.6511848100073507E9, 0.0, 2022-04-28 15:26:50.007
26.0, -34.233174244407564, 1210.2334956112318, -2808.0571329803206, -7426.921465906315, -0.01600000075995922, -0.04800000227987766, 0.9920000471174717, 0.0, 0.0, 0.0, 0.0, 0.0, 1.6511848100073507E9, 0.0, 2022-04-28 15:26:50.007
27.0, 8.502662549261004, 1012.1777437077835, -2739.0372792980634, -7434.045975321904, -0.01600000075995922, -0.04800000227987766, 0.9920000471174717, 0.0, 0.0, 0.0, 0.0, 0.0, 1.651184810008052E9, 0.0, 2022-04-28 15:26:50.008
27.0, 56.23500568373129, 1250.73100228142, -2739.377610194031, -7668.090784498956, -0.01600000075995922, -0.04800000227987766, 0.9920000471174717, 0.0, 0.0, 0.0, 0.0, 0.0, 1.651184810008052E9, 0.0, 2022-04-28 15:26:50.008
28.0, -4.183078100439161, 1400.1418754612096, -2966.574662552215, -7824.325105147902, -0.01600000075995922, -0.04800000227987766, 0.9920000471174717, 0.0, 0.0, 0.0, 0.0, 0.0, 1.6511848100188513E9, 0.0, 2022-04-28 15:26:50.018
28.0, -51.32825694186613, 1606.324429968372, -3038.797740546521, -8043.584219850134, -0.01600000075995922, -0.04800000227987766, 0.9920000471174717, 0.0, 0.0, 0.0, 0.0, 0.0, 1.6511848100188513E9, 0.0, 2022-04-28 15:26:50.018
29.0, 78.95489791454747, 1430.1508327056654, -3240.8757548523135, -8139.151753367856, -0.01600000075995922, -0.04800000227987766, 0.9920000471174717, 0.0, 0.0, 0.0, 0.0, 0.0, 1.651184810033766E9, 0.0, 2022-04-28 15:26:50.033
29.0, 6.011889178771526, 1432.759412924759, -3015.0531157278456, -8287.128374914639, -0.01600000075995922, -0.04800000227987766, 0.9920000471174717, 0.0, 0.0, 0.0, 0.0, 0.0, 1.651184810033766E9, 0.0, 2022-04-28 15:26:50.033
30.0, -58.56122345617041, 1557.64776209509, -3108.2196334740147, -8501.226427678019, -0.01600000075995922, -0.04800000227987766, 0.9920000471174717, 0.0, 0.0, 0.0, 0.0, 0.0, 1.651184810049484E9, 0.0, 2022-04-28 15:26:50.049
30.0, 69.58270862558857, 1388.4602979496121, -3065.317371132318, -8717.173860969488, -0.01600000075995922, -0.04800000227987766, 0.9920000471174717, 0.0, 0.0, 0.0, 0.0, 0.0, 1.651184810049484E9, 0.0, 2022-04-28 15:26:50.049
31.0, 17.43728354340419, 1504.1522331289016, -3101.474723903928, -8731.594915198628, -0.01600000075995922, -0.04800000227987766, 0.9920000471174717, 0.0, 0.0, 0.0, 0.0, 0.0, 1.6511848100501893E9, 0.0, 2022-04-28 15:26:50.050
31.0, -35.72539432672784, 1692.2112324507907, -3293.5952545776963, -8898.940478615928, -0.01600000075995922, -0.04800000227987766, 0.9920000471174717, 0.0, 0.0, 0.0, 0.0, 0.0, 1.6511848100501893E9, 0.0, 2022-04-28 15:26:50.050
32.0, 5.671558282803744, 1509.1188202700578, -3231.5989330122247, -8903.002009967808, -0.01600000075995922, -0.04800000227987766, 0.9920000471174717, 0.0, 0.0, 0.0, 0.0, 0.0, 1.6511848100636964E9, 0.0, 2022-04-28 15:26:50.063
32.0, 55.46832619281486, 1738.5130638522096, -3227.614069609437, -9134.847757970914, -0.01600000075995922, -0.04800000227987766, 0.9920000471174717, 0.0, 0.0, 0.0, 0.0, 0.0, 1.6511848100636964E9, 0.0, 2022-04-28 15:26:50.063
33.0, -5.783755281474441, 1890.3698316030204, -3457.384173137136, -9296.579731554724, -0.01600000075995922, -0.04800000227987766, 0.9920000471174717, 0.0, 0.0, 0.0, 0.0, 0.0, 1.651184810095924E9, 0.0, 2022-04-28 15:26:50.095
33.0, -54.88864169968292, 2104.596910914872, -3527.1351772607304, -9510.8722591158, -0.01600000075995922, -0.04800000227987766, 0.9920000471174717, 0.0, 0.0, 0.0, 0.0, 0.0, 1.651184810095924E9, 0.0, 2022-04-28 15:26:50.095
34.0, 83.73822995787486, 1925.6595275849104, -3732.33974792948, -9611.840208169539, -0.01600000075995922, -0.04800000227987766, 0.9920000471174717, 0.0, 0.0, 0.0, 0.0, 0.0, 1.6511848100965807E9, 0.0, 2022-04-28 15:26:50.096
34.0, 3.6520123067311943, 1923.3707088120282, -3509.568867168855, -9757.737445340957, -0.01600000075995922, -0.04800000227987766, 0.9920000471174717, 0.0, 0.0, 0.0, 0.0, 0.0, 1.6511848100965807E9, 0.0, 2022-04-28 15:26:50.096
35.0, -58.24333195993677, 2044.425660527777, -3596.886181384325, -9977.08257774217, -0.01600000075995922, -0.04800000227987766, 0.9920000471174717, 0.0, 0.0, 0.0, 0.0, 0.0, 1.6511848100973535E9, 0.0, 2022-04-28 15:26:50.097
35.0, 69.10400143126026, 1878.1964572472498, -3558.8682283847593, -10188.493512387387, -0.01600000075995922, -0.04800000227987766, 0.9920000471174717, 0.0, 0.0, 0.0, 0.0, 0.0, 1.6511848100973535E9, 0.0, 2022-04-28 15:26:50.097
36.0, 15.623432064894587, 1993.5854605301283, -3589.4419105225243, -10199.006371162832, -0.01600000075995922, -0.04800000227987766, 0.9920000471174717, 0.0, 0.0, 0.0, 0.0, 0.0, 1.6511848100980775E9, 0.0, 2022-04-28 15:26:50.098
36.0, -34.37155054276809, 2184.8009354146197, -3785.9755231440067, -10372.317075009458, -0.01600000075995922, -0.04800000227987766, 0.9920000471174717, 0.0, 0.0, 0.0, 0.0, 0.0, 1.6511848100980775E9, 0.0, 2022-04-28 15:26:50.098
37.0, 8.068834154400975, 2009.1621438455768, -3728.3137456271797, -10367.29064946901, -0.01600000075995922, -0.04800000227987766, 0.9920000471174717, 0.0, 0.0, 0.0, 0.0, 0.0, 1.6511848101087549E9, 0.0, 2022-04-28 15:26:50.108
37.0, 54.679207302164286, 2226.3792731720023, -3721.535176957492, -10611.339691027533, -0.01600000075995922, -0.04800000227987766, 0.9920000471174717, 0.0, 0.0, 0.0, 0.0, 0.0, 1.6511848101087549E9, 0.0, 2022-04-28 15:26:50.108
38.0, -3.947464403230697, 2378.755887016654, -3949.584926505573, -10767.510433377232, -0.01600000075995922, -0.04800000227987766, 0.9920000471174717, 0.0, 0.0, 0.0, 0.0, 0.0, 1.6511848101401837E9, 0.0, 2022-04-28 15:26:50.140
38.0, -46.75809919601306, 2598.1178489676677, -4017.7352534481324, -10985.475542694796, -0.01600000075995922, -0.04800000227987766, 0.9920000471174717, 0.0, 0.0, 0.0, 0.0, 0.0, 1.6511848101401837E9, 0.0, 2022-04-28 15:26:50.140
39.0, 80.03198910178617, 2412.781496813521, -4223.025841815863, -11078.312949244864, -0.01600000075995922, -0.04800000227987766, 0.9920000471174717, 0.0, 0.0, 0.0, 0.0, 0.0, 1.651184810140963E9, 0.0, 2022-04-28 15:26:50.140
39.0, 3.2780223111622036, 2409.8419354483485, -3994.776007620152, -11230.029470747337, -0.01600000075995922, -0.04800000227987766, 0.9920000471174717, 0.0, 0.0, 0.0, 0.0, 0.0, 1.651184810140963E9, 0.0, 2022-04-28 15:26:50.140
40.0, -60.371335034724325, 2537.9391187806614, -4085.7172848926857, -11452.28050541412, -0.01600000075995922, -0.04800000227987766, 0.9760000463575125, 0.0, 0.0, 0.0, 0.0, 0.0, 1.65118481014161E9, 0.0, 2022-04-28 15:26:50.141
40.0, 70.13621381903067, 2373.44896897953, -4053.6756920223124, -11656.761405441444, -0.01600000075995922, -0.04800000227987766, 0.9760000463575125, 0.0, 0.0, 0.0, 0.0, 0.0, 1.65118481014161E9, 0.0, 2022-04-28 15:26:50.141
41.0, 17.407364343758672, 2481.305813751649, -4078.041140233632, -11672.955172249582, -0.01600000075995922, -0.04800000227987766, 0.9760000463575125, 0.0, 0.0, 0.0, 0.0, 0.0, 1.6511848101537552E9, 0.0, 2022-04-28 15:26:50.153
41.0, -39.69342817971483, 2671.5451747477055, -4270.767534700222, -11844.67641861504, -0.01600000075995922, -0.04800000227987766, 0.9760000463575125, 0.0, 0.0, 0.0, 0.0, 0.0, 1.6511848101537552E9, 0.0, 2022-04-28 15:26:50.153
42.0, 10.944817220326513, 2503.692854886409, -4222.765918768942, -11835.5136637236, -0.01600000075995922, -0.04800000227987766, 0.9760000463575125, 0.0, 0.0, 0.0, 0.0, 0.0, 1.651184810186349E9, 0.0, 2022-04-28 15:26:50.186
42.0, 53.75919191306457, 2714.3202804909088, -4207.26216350263, -11593.863767986652, -0.01600000075995922, -0.04800000227987766, 0.9760000463575125, 0.0, 0.0, 0.0, 0.0, 0.0, 1.651184810186349E9, 0.0, 2022-04-28 15:26:50.186
43.0, -5.503262784797698, 2865.8628966454417, -4441.8081192737445, -11743.777657710481, -0.01600000075995922, -0.04800000227987766, 0.9760000463575125, 0.0, 0.0, 0.0, 0.0, 0.0, 1.6511848101869824E9, 0.0, 2022-04-28 15:26:50.186
43.0, -53.06357052130625, 3090.823488830123, -4508.398907934781, -11963.545398806687, -0.01600000075995922, -0.04800000227987766, 0.9760000463575125, 0.0, 0.0, 0.0, 0.0, 0.0, 1.6511848101869824E9, 0.0, 2022-04-28 15:26:50.186
44.0, 81.71868398180231, 2900.4794106353074, -4713.6894963025115, -12058.349992733449, -0.01600000075995922, -0.04800000227987766, 0.9760000463575125, 0.0, 0.0, 0.0, 0.0, 0.0, 1.6511848101877837E9, 0.0, 2022-04-28 15:26:50.187
44.0, 2.8404540163464844, 2903.5405187490396, -4490.428688647691, -12210.754655827768, -0.01600000075995922, -0.04800000227987766, 0.9760000463575125, 0.0, 0.0, 0.0, 0.0, 0.0, 1.6511848101877837E9, 0.0, 2022-04-28 15:26:50.187
45.0, -61.45964592183009, 3030.437194195576, -4574.204317605123, -12428.757164144889, -0.01600000075995922, -0.04800000227987766, 0.9760000463575125, 0.0, 0.0, 0.0, 0.0, 0.0, 1.651184810199469E9, 0.0, 2022-04-28 15:26:50.199
45.0, 73.78635617578402, 2864.798895108048, -4545.472536195535, -12637.565128420945, -0.01600000075995922, -0.04800000227987766, 0.9760000463575125, 0.0, 0.0, 0.0, 0.0, 0.0, 1.651184810199469E9, 0.0, 2022-04-28 15:26:50.199
46.0, 18.514374730642885, 2970.3669211072847, -4567.253713537473, -12652.913677839097, -0.01600000075995922, -0.04800000227987766, 0.9760000463575125, 0.0, 0.0, 0.0, 0.0, 0.0, 1.6511848102002487E9, 0.0, 2022-04-28 15:26:50.200
46.0, -36.14052322180942, 3161.791830389295, -4761.038499691524, -12823.789706814568, -0.01600000075995922, -0.04800000227987766, 0.9760000463575125, 0.0, 0.0, 0.0, 0.0, 0.0, 1.6511848102002487E9, 0.0, 2022-04-28 15:26:50.200
47.0, 10.346433227416128, 3000.7648279471323, -4717.767857204191, -12815.315093514975, -0.01600000075995922, -0.04800000227987766, 0.9760000463575125, 0.0, 0.0, 0.0, 0.0, 0.0, 1.651184810213788E9, 0.0, 2022-04-28 15:26:50.213
47.0, 52.730719425249845, 3198.9683058988303, -4696.676691404078, -12576.25694844732, -0.01600000075995922, -0.04800000227987766, 0.9760000463575125, 0.0, 0.0, 0.0, 0.0, 0.0, 1.651184810213788E9, 0.0, 2022-04-28 15:26:50.213
48.0, -7.137599065434188, 3358.6003256575204, -4924.625463653356, -12725.89408557443, -0.01600000075995922, -0.04800000227987766, 0.9760000463575125, 0.0, 0.0, 0.0, 0.0, 0.0, 1.6511848102294545E9, 0.0, 2022-04-28 15:26:50.229
48.0, -49.99685255764052, 3581.354376868345, -5003.038076074328, -12946.750137557741, -0.01600000075995922, -0.04800000227987766, 0.9760000463575125, 0.0, 0.0, 0.0, 0.0, 0.0, 1.6511848102294545E9, 0.0, 2022-04-28 15:26:50.229
49.0, 81.7635627812706, 3390.7298061768524, -5206.223100767005, -13042.220433676615, -0.01600000075995922, -0.04800000227987766, 0.9760000463575125, 0.0, 0.0, 0.0, 0.0, 0.0, 1.6511848102302089E9, 0.0, 2022-04-28 15:26:50.230
49.0, 8.012735655065626, 3390.288497982081, -4975.856483196374, -13187.874577350914, -0.01600000075995922, -0.04800000227987766, 0.9760000463575125, 0.0, 0.0, 0.0, 0.0, 0.0, 1.6511848102302089E9, 0.0, 2022-04-28 15:26:50.230
50.0, -57.35323577048257, 3517.3759083263576, -5062.616552318446, -13413.405504278839, -0.01600000075995922, -0.04800000227987766, 0.9760000463575125, 0.0, 0.0, 0.0, 0.0, 0.0, 1.6511848102438087E9, 0.0, 2022-04-28 15:26:50.243
50.0, 72.03982289647684, 3356.928590377327, -5041.491727418732, -13612.781440866645, -0.01600000075995922, -0.04800000227987766, 0.9760000463575125, 0.0, 0.0, 0.0, 0.0, 0.0, 1.6511848102438087E9, 0.0, 2022-04-28 15:26:50.243
51.0, 17.676637140568346, 3458.8726533195004, -5050.598383810837, -13635.890282692853, -0.01600000075995922, -0.04800000227987766, 0.9760000463575125, 0.0, 0.0, 0.0, 0.0, 0.0, 1.6511848102596204E9, 0.0, 2022-04-28 15:26:50.259
51.0, -38.612597092520446, 3647.4028800358064, -5243.88576327078, -13806.287604473997, -0.01600000075995922, -0.04800000227987766, 0.9760000463575125, 0.0, 0.0, 0.0, 0.0, 0.0, 1.6511848102596204E9, 0.0, 2022-04-28 15:26:50.259
52.0, 11.270188516471535, 3495.587251184508, -5215.081053812057, -13789.31219857512, -0.01600000075995922, -0.04800000227987766, 0.9760000463575125, 0.0, 0.0, 0.0, 0.0, 0.0, 1.6511848102602167E9, 0.0, 2022-04-28 15:26:50.260
52.0, 52.95885332254693, 3682.9113601651043, -5184.785994220991, -13553.590044267941, -0.01600000075995922, -0.04800000227987766, 0.9760000463575125, 0.0, 0.0, 0.0, 0.0, 0.0, 1.6511848102602167E9, 0.0, 2022-04-28 15:26:50.260
53.0, -4.134459401015192, 3846.4253960778005, -5413.404208562337, -13707.34855114622, -0.01600000075995922, -0.04800000227987766, 0.9760000463575125, 0.0, 0.0, 0.0, 0.0, 0.0, 1.651184810273803E9, 0.0, 2022-04-28 15:26:50.273
53.0, -50.11278945626691, 4077.055676595308, -5490.556474698242, -13922.72190979449, -0.01600000075995922, -0.04800000227987766, 0.9760000463575125, 0.0, 0.0, 0.0, 0.0, 0.0, 1.651184810273803E9, 0.0, 2022-04-28 15:26:50.273
54.0, 77.32430153386667, 3879.1083817905746, -5697.65343474457, -14022.021863467991, -0.01600000075995922, -0.04800000227987766, 0.9760000463575125, 0.0, 0.0, 0.0, 0.0, 0.0, 1.6511848102894495E9, 0.0, 2022-04-28 15:26:50.289
54.0, 4.9310580915771425, 3879.71985543333, -5467.724385468755, -14168.94383322727, -0.01600000075995922, -0.04800000227987766, 0.9760000463575125, 0.0, 0.0, 0.0, 0.0, 0.0, 1.6511848102894495E9, 0.0, 2022-04-28 15:26:50.289
55.0, -60.741585130337626, 4001.9566155350767, -5552.853858210146, -14394.186787858605, -0.01600000075995922, -0.04800000227987766, 0.9760000463575125, 0.0, 0.0, 0.0, 0.0, 0.0, 1.651184810290202E9, 0.0, 2022-04-28 15:26:50.290
55.0, 70.35686791641638, 3847.4258193159476, -5537.196767045651, -14588.813051502686, -0.01600000075995922, -0.04800000227987766, 0.9760000463575125, 0.0, 0.0, 0.0, 0.0, 0.0, 1.651184810290202E9, 0.0, 2022-04-28 15:26:50.290
56.0, 15.021308172028512, 3943.674014625605, -5543.37508177245, -14618.477937951218, -0.01600000075995922, -0.04800000227987766, 0.9760000463575125, 0.0, 0.0, 0.0, 0.0, 0.0, 1.6511848103038003E9, 0.0, 2022-04-28 15:26:50.303
56.0, -36.267679820302874, 4134.029312520288, -5732.238159584813, -14790.70781071065, -0.01600000075995922, -0.04800000227987766, 0.9760000463575125, 0.0, 0.0, 0.0, 0.0, 0.0, 1.6511848103038003E9, 0.0, 2022-04-28 15:26:50.303
57.0, 14.886671773623675, 3993.1080122399144, -5708.295320068486, -14767.935559880454, -0.01600000075995922, -0.04800000227987766, 0.9760000463575125, 0.0, 0.0, 0.0, 0.0, 0.0, 1.6511848103194883E9, 0.0, 2022-04-28 15:26:50.319
57.0, 49.83229695959017, 4170.151136242319, -5672.2408145456575, -14537.340808412526, -0.01600000075995922, -0.04800000227987766, 0.9760000463575125, 0.0, 0.0, 0.0, 0.0, 0.0, 1.6511848103194883E9, 0.0, 2022-04-28 15:26:50.319
58.0, -7.074020766187459, 4332.4310051696375, -5904.939259738661, -14693.197399165947, -0.01600000075995922, -0.04800000227987766, 0.9760000463575125, 0.0, 0.0, 0.0, 0.0, 0.0, 1.651184810320212E9, 0.0, 2022-04-28 15:26:50.320
58.0, -52.667141126003116, 4569.520092910621, -5985.47239543451, -14903.68270857213, -0.01600000075995922, -0.04800000227987766, 0.9760000463575125, 0.0, 0.0, 0.0, 0.0, 0.0, 1.651184810320212E9, 0.0, 2022-04-28 15:26:50.320
59.0, 81.02306259004399, 4369.560731929727, -6189.379220818635, -15000.974335969426, -0.01600000075995922, -0.04800000227987766, 0.9760000463575125, 0.0, 0.0, 0.0, 0.0, 0.0, 1.6511848103337927E9, 0.0, 2022-04-28 15:26:50.333
59.0, 3.7305502058006823, 4374.080401026178, -5960.587101129349, -15152.118652778678, -0.01600000075995922, -0.04800000227987766, 0.9760000463575125, 0.0, 0.0, 0.0, 0.0, 0.0, 1.6511848103337927E9, 0.0, 2022-04-28 15:26:50.333
60.0, -62.1590072135441, 4495.135352741927, -6041.243653523736, -15372.40997986868, -0.01600000075995922, -0.04800000227987766, 0.9760000463575125, 0.0, 0.0, 0.0, 0.0, 0.0, 1.6511848103494523E9, 0.0, 2022-04-28 15:26:50.349
60.0, 73.00471708504483, 4341.1505819163285, -6029.240444615949, -15575.256543615367, -0.01600000075995922, -0.04800000227987766, 0.9760000463575125, 0.0, 0.0, 0.0, 0.0, 0.0, 1.6511848103494523E9, 0.0, 2022-04-28 15:26:50.349
61.0, 15.859045762103051, 4430.622078506276, -6031.596581588034, -15598.967509334441, -0.01600000075995922, -0.04800000227987766, 0.9760000463575125, 0.0, 0.0, 0.0, 0.0, 0.0, 1.651184810350212E9, 0.0, 2022-04-28 15:26:50.350
61.0, -43.27625233726576, 4621.216729998123, -6220.452179600485, -15772.065038883593, -0.01600000075995922, -0.04800000227987766, 0.9760000463575125, 0.0, 0.0, 0.0, 0.0, 0.0, 1.651184810350212E9, 0.0, 2022-04-28 15:26:50.350
62.0, 12.216383205261081, 4491.720824082382, -6203.031725606881, -15751.058020832483, -0.01600000075995922, -0.04800000227987766, 0.9760000463575125, 0.0, 0.0, 0.0, 0.0, 0.0, 1.6511848103638115E9, 0.0, 2022-04-28 15:26:50.363
62.0, 51.68354743765667, 4656.384879231453, -6160.032225866336, -15518.813973484095, -0.01600000075995922, -0.04800000227987766, 0.9760000463575125, 0.0, 0.0, 0.0, 0.0, 0.0, 1.6511848103638115E9, 0.0, 2022-04-28 15:26:50.363
63.0, -5.742616381961852, 4827.857422249857, -6390.931779180653, -15675.04081433313, -0.01600000075995922, -0.04800000227987766, 0.9760000463575125, 0.0, 0.0, 0.0, 0.0, 0.0, 1.6511848103795464E9, 0.0, 2022-04-28 15:26:50.379
63.0, -48.743986072484404, 5062.399638121016, -6471.547192675527, -15880.398720900062, -0.01600000075995922, -0.04800000227987766, 0.9760000463575125, 0.0, 0.0, 0.0, 0.0, 0.0, 1.6511848103795464E9, 0.0, 2022-04-28 15:26:50.379
64.0, 79.86369360378012, 4853.711350643542, -6679.014402817469, -15976.433741912246, -0.01600000075995922, -0.04800000227987766, 0.9760000463575125, 0.0, 0.0, 0.0, 0.0, 0.0, 1.6511848103801968E9, 0.0, 2022-04-28 15:26:50.380
64.0, 4.250396299641579, 4865.0862563587725, -6443.258589410689, -16129.384430400096, -0.01600000075995922, -0.04800000227987766, 0.9760000463575125, 0.0, 0.0, 0.0, 0.0, 0.0, 1.6511848103801968E9, 0.0, 2022-04-28 15:26:50.380
65.0, -59.87018844066188, 4983.788811002392, -6527.109016367234, -16357.922236892395, -0.01600000075995922, -0.04800000227987766, 0.9760000463575125, 0.0, 0.0, 0.0, 0.0, 0.0, 1.6511848103937953E9, 0.0, 2022-04-28 15:26:50.393
65.0, 74.89710646262392, 4834.923963216133, -6525.087600441184, -16549.062913777772, -0.01600000075995922, -0.04800000227987766, 0.9760000463575125, 0.0, 0.0, 0.0, 0.0, 0.0, 1.6511848103937953E9, 0.0, 2022-04-28 15:26:50.393
66.0, 16.917437449563295, 4922.215098131914, -6518.280982521828, -16579.258866020013, -0.01600000075995922, -0.04800000227987766, 0.9760000463575125, 0.0, 0.0, 0.0, 0.0, 0.0, 1.651184810425836E9, 0.0, 2022-04-28 15:26:50.425
66.0, -41.36516345990822, 5105.363608811982, -6706.250224244781, -16751.671993877273, -0.01600000075995922, -0.04800000227987766, 0.9760000463575125, 0.0, 0.0, 0.0, 0.0, 0.0, 1.651184810425836E9, 0.0, 2022-04-28 15:26:50.425
67.0, 16.3227933566086, 4985.954213076737, -6697.622275047004, -16729.69634173764, -0.01600000075995922, -0.04800000227987766, 0.9760000463575125, 0.0, 0.0, 0.0, 0.0, 0.0, 1.651184810426564E9, 0.0, 2022-04-28 15:26:50.426
67.0, 50.46060015214607, 5147.13642136706, -6648.220066582318, -16501.5923636402, -0.01600000075995922, -0.04800000227987766, 0.9760000463575125, 0.0, 0.0, 0.0, 0.0, 0.0, 1.651184810426564E9, 0.0, 2022-04-28 15:26:50.426
68.0, -5.106833389494568, 5311.136644273996, -6883.065214349888, -16653.08449114533, -0.01600000075995922, -0.04800000227987766, 0.9760000463575125, 0.0, 0.0, 0.0, 0.0, 0.0, 1.6511848104273152E9, 0.0, 2022-04-28 15:26:50.427
68.0, -49.79115806007758, 5552.664993262384, -6963.164521650877, -16866.337326518726, -0.01600000075995922, -0.04800000227987766, 0.9760000463575125, 0.0, 0.0, 0.0, 0.0, 0.0, 1.6511848104273152E9, 0.0, 2022-04-28 15:26:50.427
69.0, 79.10075401281938, 5342.035697707906, -7172.15761097474, -16960.760450650007, -0.01600000075995922, -0.04800000227987766, 0.9760000463575125, 0.0, 0.0, 0.0, 0.0, 0.0, 1.6511848104281251E9, 0.0, 2022-04-28 15:26:50.428
69.0, 2.690858018118888, 5352.53172693355, -6937.48636855511, -17113.808376536705, -0.01600000075995922, -0.04800000227987766, 0.9760000463575125, 0.0, 0.0, 0.0, 0.0, 0.0, 1.6511848104281251E9, 0.0, 2022-04-28 15:26:50.428
70.0, -61.134274625685066, 5474.854504734278, -7016.658180667087, -17341.295271141455, -0.01600000075995922, -0.04800000227987766, 0.9760000463575125, 0.0, 0.0, 0.0, 0.0, 0.0, 1.6511848104387715E9, 0.0, 2022-04-28 15:26:50.438
70.0, 70.54012301424518, 5328.226117121521, -7016.912493864074, -17525.898602904286, -0.01600000075995922, -0.04800000227987766, 0.9760000463575125, 0.0, 0.0, 0.0, 0.0, 0.0, 1.6511848104387715E9, 0.0, 2022-04-28 15:26:50.438
71.0, 14.363085779827088, 5409.43617470935, -7012.005745122209, -17558.334755219985, -0.01600000075995922, -0.04800000227987766, 0.9760000463575125, 0.0, 0.0, 0.0, 0.0, 0.0, 1.6511848104538052E9, 0.0, 2022-04-28 15:26:50.453
71.0, -37.61778370430693, 5593.392503779847, -7191.822004941758, -17736.941157403868, -0.01600000075995922, -0.04800000227987766, 0.9760000463575125, 0.0, 0.0, 0.0, 0.0, 0.0, 1.6511848104538052E9, 0.0, 2022-04-28 15:26:50.453
72.0, 13.86567908572033, 5482.917729038745, -7193.4413816225715, -17702.709853109438, -0.01600000075995922, -0.04800000227987766, 0.9760000463575125, 0.0, 0.0, 0.0, 0.0, 0.0, 1.6511848104695027E9, 0.0, 2022-04-28 15:26:50.469
72.0, 51.960300034377724, 5630.531580289826, -7139.689669509418, -17483.469437906984, -0.01600000075995922, -0.04800000227987766, 0.9760000463575125, 0.0, 0.0, 0.0, 0.0, 0.0, 1.6511848104695027E9, 0.0, 2022-04-28 15:26:50.469
73.0, -2.8441939163021743, 5797.606000960339, -7374.074809582438, -17632.0257439469, -0.01600000075995922, -0.04800000227987766, 0.9760000463575125, 0.0, 0.0, 0.0, 0.0, 0.0, 1.6511848104702256E9, 0.0, 2022-04-28 15:26:50.470
73.0, -48.4485339759849, 5557.111734309699, -7457.790600140579, -17841.87153046066, -0.01600000075995922, -0.04800000227987766, 0.9760000463575125, 0.0, 0.0, 0.0, 0.0, 0.0, 1.6511848104702256E9, 0.0, 2022-04-28 15:26:50.470
74.0, 82.40308567369357, 5341.6841471120715, -7660.900826834142, -17939.84381964989, -0.01600000075995922, -0.04800000227987766, 0.9760000463575125, 0.0, 0.0, 0.0, 0.0, 0.0, 1.6511848104837325E9, 0.0, 2022-04-28 15:26:50.483
74.0, 4.699184294324368, 5351.450895846356, -7424.266136937775, -18096.051960999146, -0.01600000075995922, -0.04800000227987766, 0.9760000463575125, 0.0, 0.0, 0.0, 0.0, 0.0, 1.6511848104837325E9, 0.0, 2022-04-28 15:26:50.483
75.0, -57.74218536587432, 5475.845578222536, -7501.317425774876, -18316.96785138175, -0.01600000075995922, -0.04800000227987766, 0.9760000463575125, 0.0, 0.0, 0.0, 0.0, 0.0, 1.6511848105315125E9, 0.0, 2022-04-28 15:26:50.531
75.0, 72.496090691071, 5333.144085563254, -7512.331431144383, -18504.74635820696, -0.01600000075995922, -0.04800000227987766, 0.9760000463575125, 0.0, 0.0, 0.0, 0.0, 0.0, 1.6511848105315125E9, 0.0, 2022-04-28 15:26:50.531
76.0, 14.565040377434343, 5402.947448286228, -7497.46158892056, -18544.987681730185, -0.01600000075995922, -0.04800000227987766, 0.9760000463575125, 0.0, 0.0, 0.0, 0.0, 0.0, 1.651184810532204E9, 0.0, 2022-04-28 15:26:50.532
76.0, -39.72708727931604, 5592.091018595267, -7682.625905676745, -18715.51216010982, -0.01600000075995922, -0.04800000227987766, 0.9760000463575125, 0.0, 0.0, 0.0, 0.0, 0.0, 1.651184810532204E9, 0.0, 2022-04-28 15:26:50.532
77.0, 16.487348954658955, 5487.039098789915, -7686.833293126896, -18677.215584563557, -0.01600000075995922, -0.04800000227987766, 0.9760000463575125, 0.0, 0.0, 0.0, 0.0, 0.0, 1.6511848105330153E9, 0.0, 2022-04-28 15:26:50.533
77.0, 47.61079638591036, 5625.639791147783, -7626.734970788937, -18460.611798829865, -0.01600000075995922, -0.04800000227987766, 0.9760000463575125, 0.0, 0.0, 0.0, 0.0, 0.0, 1.6511848105330153E9, 0.0, 2022-04-28 15:26:50.533
78.0, -2.1186533248983324, 5799.786362634506, -7858.565759192221, -18615.30154079711, -0.01600000075995922, -0.04800000227987766, 0.9760000463575125, 0.0, 0.0, 0.0, 0.0, 0.0, 1.65118481053371E9, 0.0, 2022-04-28 15:26:50.533
78.0, -49.23017306672409, 5559.998937075492, -7944.663866022136, -18820.71554586338, -0.01600000075995922, -0.04800000227987766, 0.9760000463575125, 0.0, 0.0, 0.0, 0.0, 0.0, 1.65118481053371E9, 0.0, 2022-04-28 15:26:50.533
79.0, 81.59526728326455, 5345.970072461292, -8158.02141859429, -18924.10321018845, -0.01600000075995922, -0.04800000227987766, 0.9760000463575125, 0.0, 0.0, 0.0, 0.0, 0.0, 1.6511848105608213E9, 0.0, 2022-04-28 15:26:50.560
79.0, 3.0685879136435688, 5354.364277911838, -7916.513639055658, -19073.24294062145, -0.01600000075995922, -0.04800000227987766, 0.9760000463575125, 0.0, 0.0, 0.0, 0.0, 0.0, 1.6511848105608213E9, 0.0, 2022-04-28 15:26:50.560
80.0, -62.09542891429737, 5476.264447017573, -7997.656378444284, -19296.16715728026, -0.01600000075995922, -0.04800000227987766, 0.9760000463575125, 0.0, 0.0, 0.0, 0.0, 0.0, 1.651184810561596E9, 0.0, 2022-04-28 15:26:50.561
80.0, 76.02281634928659, 5334.7372829443775, -8005.786920947954, -19483.5380150103, -0.01600000075995922, -0.04800000227987766, 0.9760000463575125, 0.0, 0.0, 0.0, 0.0, 0.0, 1.651184810561596E9, 0.0, 2022-04-28 15:26:50.561
81.0, 14.553820677567273, 5405.172688759863, -7983.201665115543, -19522.67232814664, -0.01600000075995922, -0.04800000227987766, 0.9760000463575125, 0.0, 0.0, 0.0, 0.0, 0.0, 1.6511848105623147E9, 0.0, 2022-04-28 15:26:50.562
81.0, -39.78318577865139, 5590.26594741689, -8168.665173868183, -19698.013797669206, -0.01600000075995922, -0.04800000227987766, 0.9760000463575125, 0.0, 0.0, 0.0, 0.0, 0.0, 1.6511848105623147E9, 0.0, 2022-04-28 15:26:50.562
82.0, 20.010334712918848, 5495.805424286053, -8183.80054898886, -19660.22958841687, -0.01600000075995922, -0.04800000227987766, 0.9760000463575125, 0.0, 0.0, 0.0, 0.0, 0.0, 1.6511848105630329E9, 0.0, 2022-04-28 15:26:50.563
82.0, 49.67896106140688, 5623.451949673705, -8115.994292842224, -19448.70084692305, -0.01600000075995922, -0.04800000227987766, 0.9760000463575125, 0.0, 0.0, 0.0, 0.0, 0.0, 1.6511848105630329E9, 0.0, 2022-04-28 15:26:50.563
83.0, -5.368626386392862, 5794.868394192774, -8345.435285173822, -19593.74538690457, -0.01600000075995922, -0.04800000227987766, 0.9760000463575125, 0.0, 0.0, 0.0, 0.0, 0.0, 1.6511848105738068E9, 0.0, 2022-04-28 15:26:50.573
83.0, -47.917468182276934, 5565.081461115275, -8437.479832933284, -19803.295721321832, -0.01600000075995922, -0.04800000227987766, 0.9760000463575125, 0.0, 0.0, 0.0, 0.0, 0.0, 1.6511848105738068E9, 0.0, 2022-04-28 15:26:50.573
84.0, 80.45833769673482, 5344.032804284245, -8648.226935336366, -19900.684586117975, -0.01600000075995922, -0.04800000227987766, 0.9760000463575125, 0.0, 0.0, 0.0, 0.0, 0.0, 1.6511848106062963E9, 0.0, 2022-04-28 15:26:50.606
84.0, 2.664678718429059, 5353.074012427125, -8407.470875688829, -20051.90370092634, -0.01600000075995922, -0.04800000227987766, 0.9760000463575125, 0.0, 0.0, 0.0, 0.0, 0.0, 1.6511848106062963E9, 0.0, 2022-04-28 15:26:50.606
85.0, -61.541923720855266, 5472.244054565206, -8481.70227995934, -20278.242446244694, -0.01600000075995922, -0.04800000227987766, 0.9760000463575125, 0.0, 0.0, 0.0, 0.0, 0.0, 1.6511848106069548E9, 0.0, 2022-04-28 15:26:50.606
85.0, 75.37955355690792, 5335.6722579333, -8495.685765893664, -20464.40531628905, -0.01600000075995922, -0.04800000227987766, 0.9760000463575125, 0.0, 0.0, 0.0, 0.0, 0.0, 1.6511848106069548E9, 0.0, 2022-04-28 15:26:50.606
86.0, 13.51038858992979, 5402.14710969571, -8477.906281504314, -20508.236943769734, -0.01600000075995922, -0.04800000227987766, 0.9760000463575125, 0.0, 0.0, 0.0, 0.0, 0.0, 1.6511848106077242E9, 0.0, 2022-04-28 15:26:50.607
86.0, -41.469880658667535, 5586.282953964081, -8657.46448822692, -20678.488409452606, -0.01600000075995922, -0.04800000227987766, 0.9760000463575125, 0.0, 0.0, 0.0, 0.0, 0.0, 1.6511848106077242E9, 0.0, 2022-04-28 15:26:50.607
87.0, 15.836606362368912, 5501.463892919011, -8672.854176544584, -20638.02269193204, -0.01600000075995922, -0.04800000227987766, 0.9760000463575125, 0.0, 0.0, 0.0, 0.0, 0.0, 1.6511848106194534E9, 0.0, 2022-04-28 15:26:50.619
87.0, 47.63697568560019, 5619.311880422756, -8605.84451908851, -20425.49539715005, -0.01600000075995922, -0.04800000227987766, 0.9760000463575125, 0.0, 0.0, 0.0, 0.0, 0.0, 1.6511848106194534E9, 0.0, 2022-04-28 15:26:50.619
88.0, -3.536075408104807, 5799.730264135171, -8838.584103181027, -20577.862661244813, -0.01600000075995922, -0.04800000227987766, 0.9760000463575125, 0.0, 0.0, 0.0, 0.0, 0.0, 1.6511848106201189E9, 0.0, 2022-04-28 15:26:50.620
88.0, -46.18589450279251, 5569.789995159488, -8926.5932988883, -20779.405869856942, -0.01600000075995922, -0.04800000227987766, 0.9760000463575125, 0.0, 0.0, 0.0, 0.0, 0.0, 1.6511848106201189E9, 0.0, 2022-04-28 15:26:50.620
89.0, 80.40971899731085, 5340.9249474210665, -9133.59302153578, -20883.94916326832, -0.01600000075995922, -0.04800000227987766, 0.9760000463575125, 0.0, 0.0, 0.0, 0.0, 0.0, 1.6511848106502447E9, 0.0, 2022-04-28 15:26:50.650
89.0, 1.5090496321208775, 5354.027686915826, -8895.626927255187, -21035.05234117806, -0.01600000075995922, -0.04800000227987766, 0.9760000463575125, 0.0, 0.0, 0.0, 0.0, 0.0, 1.6511848106502447E9, 0.0, 2022-04-28 15:26:50.650
90.0, -62.53299720911309, 5477.277959905565, -8967.277800556272, -21259.251863721758, -0.01600000075995922, -0.04800000227987766, 0.9760000463575125, 0.0, 0.0, 0.0, 0.0, 0.0, 1.6511848106511896E9, 0.0, 2022-04-28 15:26:50.651
90.0, 76.6847786414437, 5334.6886642449535, -8992.567004056647, -21441.873048508074, -0.01600000075995922, -0.04800000227987766, 0.9760000463575125, 0.0, 0.0, 0.0, 0.0, 0.0, 1.6511848106511896E9, 0.0, 2022-04-28 15:26:50.651
91.0, 13.734782587271184, 5401.466447903775, -8966.182009869255, -21485.22596879443, -0.01600000075995922, -0.04800000227987766, 0.9760000463575125, 0.0, 0.0, 0.0, 0.0, 0.0, 1.6511848106515615E9, 0.0, 2022-04-28 15:26:50.651
91.0, -41.5184993580915, 5590.123831218574, -9144.072221211623, -21660.675895415712, -0.01600000075995922, -0.04800000227987766, 0.9760000463575125, 0.0, 0.0, 0.0, 0.0, 0.0, 1.6511848106515615E9, 0.0, 2022-04-28 15:26:50.651
92.0, 19.823339715134352, 5503.8387293908745, -9171.276253489312, -21614.865860858466, -0.01600000075995922, -0.04800000227987766, 0.9760000463575125, 0.0, 0.0, 0.0, 0.0, 0.0, 1.651184810663858E9, 0.0, 2022-04-28 15:26:50.663
92.0, 46.45142739964649, 5614.981076274067, -9096.644679923542, -21404.855518746655, -0.01600000075995922, -0.04800000227987766, 0.9760000463575125, 0.0, 0.0, 0.0, 0.0, 0.0, 1.651184810663858E9, 0.0, 2022-04-28 15:26:50.663
93.0, -7.1824778649024665, 5794.625300695654, -9324.178323277738, -21558.632725124713, -0.01600000075995922, -0.04800000227987766, 0.9760000463575125, 0.0, 0.0, 0.0, 0.0, 0.0, 1.6511848106794913E9, 0.0, 2022-04-28 15:26:50.679
93.0, -45.35563671262935, 5568.151918978896, -9418.507949910127, -21757.692640166264, -0.01600000075995922, -0.04800000227987766, 0.9760000463575125, 0.0, 0.0, 0.0, 0.0, 0.0, 1.6511848106794913E9, 0.0, 2022-04-28 15:26:50.679
94.0, 80.04694870160893, 5335.236559588462, -9625.122462862171, -21863.073671167716, -0.01600000075995922, -0.04800000227987766, 0.9760000463575125, 0.0, 0.0, 0.0, 0.0, 0.0, 1.651184810680172E9, 0.0, 2022-04-28 15:26:50.680
94.0, 3.1134667131118476, 5353.246047825087, -9384.310304715298, -22011.573878708296, -0.01600000075995922, -0.04800000227987766, 0.9760000463575125, 0.0, 0.0, 0.0, 0.0, 0.0, 1.651184810680172E9, 0.0, 2022-04-28 15:26:50.680
95.0, -58.52382445661351, 5470.856551681645, -9461.791682047304, -22242.714655569755, -0.01600000075995922, -0.04800000227987766, 0.9760000463575125, 0.0, 0.0, 0.0, 0.0, 0.0, 1.6511848106937656E9, 0.0, 2022-04-28 15:26:50.693
95.0, 73.7938359756954, 5333.951903953683, -9482.708942499477, -22421.711877299007, -0.01600000075995922, -0.04800000227987766, 0.9760000463575125, 0.0, 0.0, 0.0, 0.0, 0.0, 1.6511848106937656E9, 0.0, 2022-04-28 15:26:50.693
96.0, 15.013828372117132, 5402.528579491191, -9454.622293832246, -22465.96985337464, -0.01600000075995922, -0.04800000227987766, 0.9760000463575125, 0.0, 0.0, 0.0, 0.0, 0.0, 1.6511848107564971E9, 0.0, 2022-04-28 15:26:50.756
96.0, -43.085517439525574, 5583.885678092483, -9628.604309720919, -22640.80643640319, -0.01600000075995922, -0.04800000227987766, 0.9760000463575125, 0.0, 0.0, 0.0, 0.0, 0.0, 1.6511848107564971E9, 0.0, 2022-04-28 15:26:50.756
97.0, 22.39265098469332, 5512.515297288075, -9664.679384693503, -22595.25819484284, -0.01600000075995922, -0.04800000227987766, 0.9760000463575125, 0.0, 0.0, 0.0, 0.0, 0.0, 1.6511848107572775E9, 0.0, 2022-04-28 15:26:50.757
97.0, 45.74832620797679, 5611.140199019574, -9581.89482922433, -22389.350522982422, -0.01600000075995922, -0.04800000227987766, 0.9760000463575125, 0.0, 0.0, 0.0, 0.0, 0.0, 1.6511848107572775E9, 0.0, 2022-04-28 15:26:50.757
98.0, -8.809334345627576, 5792.21680512419, -9814.451158219017, -22536.80355853541, -0.01600000075995922, -0.04800000227987766, 0.9760000463575125, 0.0, 0.0, 0.0, 0.0, 0.0, 1.651184810757988E9, 0.0, 2022-04-28 15:26:50.757
98.0, -48.44479407602921, 5579.6633310425095, -9911.903601314407, -22746.10331965564, -0.01600000075995922, -0.04800000227987766, 0.9760000463575125, 0.0, 0.0, 0.0, 0.0, 0.0, 1.651184810757988E9, 0.0, 2022-04-28 15:26:50.757
99.0, 78.502370019909, 5335.988279479556, -10117.227848781738, -22843.34632835351, -0.01600000075995922, -0.04800000227987766, 0.9760000463575125, 0.0, 0.0, 0.0, 0.0, 0.0, 1.6511848107587435E9, 0.0, 2022-04-28 15:26:50.758
99.0, 3.049888413865119, 5349.622084768023, -9873.016121575143, -22996.207259242423, -0.01600000075995922, -0.04800000227987766, 0.9760000463575125, 0.0, 0.0, 0.0, 0.0, 0.0, 1.6511848107587435E9, 0.0, 2022-04-28 15:26:50.758
100.0, -65.22946507716551, 5473.253827553242, -9944.954967172816, -23223.335123451427, -0.01600000075995922, -0.04800000227987766, 0.9760000463575125, 0.0, 0.0, 0.0, 0.0, 0.0, 1.65118481077212E9, 0.0, 2022-04-28 15:26:50.772
100.0, 77.72821072908118, 5340.186317179818, -9974.855467318557, -23402.99056757288, -0.01600000075995922, -0.04800000227987766, 0.9760000463575125, 0.0, 0.0, 0.0, 0.0, 0.0, 1.65118481077212E9, 0.0, 2022-04-28 15:26:50.772
0.0, 12.788587898481637, 8.506402449216694, -139.3299728492275, 81.32973438641056, -0.01600000075995922, -0.04800000227987766, 0.9760000463575125, 0.0, 0.0, 0.0, 0.0, 0.0, 1.651184810772696E9, 0.0, 2022-04-28 15:26:50.772
1.0, -44.0765909277834, 187.31662918068469, -317.19400489190593, -97.10463239951059, -0.01600000075995922, -0.04800000227987766, 0.9760000463575125, 0.0, 0.0, 0.0, 0.0, 0.0, 1.6511848107734144E9, 0.0, 2022-04-28 15:26:50.773
1.0, 26.547679835464805, 126.39178895251825, -353.0820848667063, -40.44140817085281, -0.01600000075995922, -0.04800000227987766, 0.9760000463575125, 0.0, 0.0, 0.0, 0.0, 0.0, 1.6511848107734144E9, 0.0, 2022-04-28 15:26:50.773
2.0, 49.36480946512893, 210.51709855580702, -265.8358287503943, 157.70971118146554, -0.01600000075995922, -0.04800000227987766, 0.9760000463575125, 0.0, 0.0, 0.0, 0.0, 0.0, 1.6511848107742033E9, 0.0, 2022-04-28 15:26:50.774
2.0, -6.961823767516762, 394.1891952296719, -501.31675951043144, 11.157991517800838, -0.01600000075995922, -0.04800000227987766, 0.9760000463575125, 0.0, 0.0, 0.0, 0.0, 0.0, 1.6511848107742033E9, 0.0, 2022-04-28 15:26:50.774
3.0, -50.36710265325382, 180.98497855570167, -594.5805146554485, -192.6291570677422, -0.01600000075995922, -0.04800000227987766, 0.9760000463575125, 0.0, 0.0, 0.0, 0.0, 0.0, 1.651184810784901E9, 0.0, 2022-04-28 15:26:50.784
3.0, 79.85621380386874, -59.84774904092774, -804.1420687725767, -293.23059592582285, -0.01600000075995922, -0.04800000227987766, 0.9760000463575125, 0.0, 0.0, 0.0, 0.0, 0.0, 1.651184810784901E9, 0.0, 2022-04-28 15:26:50.784
4.0, 5.084393989760429, -39.96083102654666, -1049.0512873209082, -445.59412012062967, -0.01600000075995922, -0.04800000227987766, 0.9760000463575125, 0.0, 0.0, 0.0, 0.0, 0.0, 1.651184810799441E9, 0.0, 2022-04-28 15:26:50.799
4.0, -60.88744122860953, 81.66258548246697, -1119.3109178384766, -680.1494256416336, -0.01600000075995922, -0.04800000227987766, 0.9760000463575125, 0.0, 0.0, 0.0, 0.0, 0.0, 1.651184810799441E9, 0.0, 2022-04-28 15:26:50.799
5.0, 75.78346275212243, -54.179930658079684, -1155.9656773041934, -848.4505334976129, -0.01600000075995922, -0.04800000227987766, 0.9760000463575125, 0.0, 0.0, 0.0, 0.0, 0.0, 1.6511848108001928E9, 0.0, 2022-04-28 15:26:50.800
5.0, 12.336060003843158, 6.168964976910502, -1115.2718258863315, -897.8658316121437, -0.01600000075995922, -0.04800000227987766, 0.9760000463575125, 0.0, 0.0, 0.0, 0.0, 0.0, 1.6511848108001928E9, 0.0, 2022-04-28 15:26:50.800
6.0, -41.28288566088304, 187.32036908064038, -1293.341552426573, -1078.0990902767517, -0.01600000075995922, -0.04800000227987766, 0.9760000463575125, 0.0, 0.0, 0.0, 0.0, 0.0, 1.651184810832126E9, 0.0, 2022-04-28 15:26:50.832
6.0, 22.467448983807117, 133.860369164031, -1342.8092091404833, -1018.769317379687, -0.01600000075995922, -0.04800000227987766, 0.9760000463575125, 0.0, 0.0, 0.0, 0.0, 0.0, 1.651184810832126E9, 0.0, 2022-04-28 15:26:50.832
7.0, 46.00637930491939, 208.94260067446157, -1246.0935263363644, -822.4731884053908, -0.01600000075995922, -0.04800000227987766, 0.9760000463575125, 0.0, 0.0, 0.0, 0.0, 0.0, 1.6511848108329887E9, 0.0, 2022-04-28 15:26:50.832
7.0, -6.367179674562067, 391.47028796188533, -1479.3417368228547, -969.9785825577565, -0.01600000075995922, -0.04800000227987766, 0.9760000463575125, 0.0, 0.0, 0.0, 0.0, 0.0, 1.6511848108329887E9, 0.0, 2022-04-28 15:26:50.832
8.0, -42.78632544307038, 188.43859916739166, -1575.2458613365889, -1171.806023566518, -0.01600000075995922, -0.04800000227987766, 0.9760000463575125, 0.0, 0.0, 0.0, 0.0, 0.0, 1.6511848108336034E9, 0.0, 2022-04-28 15:26:50.833
8.0, 78.18073862371966, 429.96133830584586, -1785.099127650261, -1271.2854924378917, -0.01600000075995922, -0.04800000227987766, 0.9760000463575125, 0.0, 0.0, 0.0, 0.0, 0.0, 1.6511848108336034E9, 0.0, 2022-04-28 15:26:50.833
9.0, 5.570580984000117, 453.3076637792401, -2029.6343562030233, -1429.034472568892, -0.01600000075995922, -0.04800000227987766, 0.9760000463575125, 0.0, 0.0, 0.0, 0.0, 0.0, 1.6511848108344464E9, 0.0, 2022-04-28 15:26:50.834
9.0, -61.39606762258336, 570.5292180404067, -2098.517703536898, -1656.2333948770538, -0.01600000075995922, -0.04800000227987766, 0.9760000463575125, 0.0, 0.0, 0.0, 0.0, 0.0, 1.6511848108344464E9, 0.0, 2022-04-28 15:26:50.834
10.0, 76.0938744484447, 439.73556684004143, -2135.9578419933096, -1831.7225904478692, -0.01600000075995922, -0.04800000227987766, 0.9760000463575125, 0.0, 0.0, 0.0, 0.0, 0.0, 1.6511848108437526E9, 0.0, 2022-04-28 15:26:50.843
10.0, 12.190203905571252, 486.47122663632035, -2097.926799343899, -1883.5276846340857, -0.01600000075995922, -0.04800000227987766, 0.9760000463575125, 0.0, 0.0, 0.0, 0.0, 0.0, 1.6511848108437526E9, 0.0, 2022-04-28 15:26:50.843
11.0, -45.13872251519933, 671.871157089714, -2271.7816586340778, -2058.955171855632, -0.01600000075995922, -0.03200000151991844, 0.9760000463575125, 0.0, 0.0, 0.0, 0.0, 0.0, 1.6511848108588092E9, 0.0, 2022-04-28 15:26:50.858
11.0, 22.482408583629876, 630.176882433705, -2323.927083716262, -1998.002282377798, -0.01600000075995922, -0.03200000151991844, 0.9760000463575125, 0.0, 0.0, 0.0, 0.0, 0.0, 1.6511848108588092E9, 0.0, 2022-04-28 15:26:50.858
12.0, 46.271912201773375, 696.1113186525181, -2224.088584449142, -1803.0263380878605, -0.01600000075995922, -0.03200000151991844, 0.9760000463575125, 0.0, 0.0, 0.0, 0.0, 0.0, 1.6511848108748655E9, 0.0, 2022-04-28 15:26:50.874
12.0, -7.642485559452325, 886.7284095440991, -2457.6733859316446, -1956.2986579719, -0.01600000075995922, -0.03200000151991844, 0.9760000463575125, 0.0, 0.0, 0.0, 0.0, 0.0, 1.6511848108748655E9, 0.0, 2022-04-28 15:26:50.874
13.0, -43.515605934429914, 683.2329731550999, -2560.3916081646457, -2151.218503762502, -0.01600000075995922, -0.03200000151991844, 0.9760000463575125, 0.0, 0.0, 0.0, 0.0, 0.0, 1.6511848108894496E9, 0.0, 2022-04-28 15:26:50.889
13.0, 80.33866089815274, 920.4099485450424, -2768.445982599631, -2254.542589788325, -0.01600000075995922, -0.03200000151991844, 0.9760000463575125, 0.0, 0.0, 0.0, 0.0, 0.0, 1.6511848108894496E9, 0.0, 2022-04-28 15:26:50.889
14.0, 2.1934513240121305, 942.5333267329261, -3012.248190761078, -2407.698972773738, -0.01600000075995922, -0.03200000151991844, 0.9760000463575125, 0.0, 0.0, 0.0, 0.0, 0.0, 1.65118481089023E9, 0.0, 2022-04-28 15:26:50.890
14.0, -62.09542891429737, 1060.6225377838127, -3079.4710225146264, -2638.069330244325, -0.01600000075995922, -0.03200000151991844, 0.9760000463575125, 0.0, 0.0, 0.0, 0.0, 0.0, 1.65118481089023E9, 0.0, 2022-04-28 15:26:50.890
15.0, 75.18507875921205, 932.3570589534938, -3127.3043429479003, -2808.303966377396, -0.01600000075995922, -0.03200000151991844, 0.9760000463575125, 0.0, 0.0, 0.0, 0.0, 0.0, 1.6511848109044445E9, 0.0, 2022-04-28 15:26:50.904
15.0, 10.129519029986113, 981.5012143212371, -3072.7653818940744, -2864.8662133072503, -0.01600000075995922, -0.03200000151991844, 0.9760000463575125, 0.0, 0.0, 0.0, 0.0, 0.0, 1.6511848109044445E9, 0.0, 2022-04-28 15:26:50.904
16.0, -42.18794145016, 1160.20298395399, -3248.314415864181, -3040.44703642698, -0.01600000075995922, -0.03200000151991844, 0.9760000463575125, 0.0, 0.0, 0.0, 0.0, 0.0, 1.6511848109051635E9, 0.0, 2022-04-28 15:26:50.905
16.0, 23.53706037113443, 1128.7148962770589, -3311.350429617334, -2969.3066594698466, -0.01600000075995922, -0.03200000151991844, 0.9760000463575125, 0.0, 0.0, 0.0, 0.0, 0.0, 1.6511848109051635E9, 0.0, 2022-04-28 15:26:50.905
17.0, 45.14246241515502, 1183.2800366305746, -3204.52205733303, -2788.718110309448, -0.01600000075995922, -0.03200000151991844, 0.9760000463575125, 0.0, 0.0, 0.0, 0.0, 0.0, 1.651184810918846E9, 0.0, 2022-04-28 15:26:50.918
17.0, -11.588080012705177, 1374.9517793096602, -3437.845065818634, -2932.3564479076304, -0.01600000075995922, -0.03200000151991844, 0.9760000463575125, 0.0, 0.0, 0.0, 0.0, 0.0, 1.651184810918846E9, 0.0, 2022-04-28 15:26:50.918
18.0, -42.88730274187401, 1178.9062236323953, -3540.1257197568193, -3131.3041659505107, -0.01600000075995922, -0.03200000151991844, 0.9760000463575125, 0.0, 0.0, 0.0, 0.0, 0.0, 1.651184810934246E9, 0.0, 2022-04-28 15:26:50.934
18.0, 77.90024612704292, 1408.132171716541, -3746.0595709169284, -3233.2781480923295, -0.01600000075995922, -0.03200000151991844, 0.9760000463575125, 0.0, 0.0, 0.0, 0.0, 0.0, 1.651184810934246E9, 0.0, 2022-04-28 15:26:50.934
19.0, -1.4604309326969087, 1432.9146187729202, -3986.540747917723, -3391.1168858222663, -0.01600000075995922, -0.03200000151991844, 0.9760000463575125, 0.0, 0.0, 0.0, 0.0, 0.0, 1.6511848109494653E9, 0.0, 2022-04-28 15:26:50.949
19.0, -63.05658320290968, 1551.2880622204393, -4054.4928601626307, -3618.6486592264846, -0.01600000075995922, -0.03200000151991844, 0.9760000463575125, 0.0, 0.0, 0.0, 0.0, 0.0, 1.6511848109494653E9, 0.0, 2022-04-28 15:26:50.949
20.0, 76.09761434840038, 1426.0369427544065, -4108.489535722882, -3785.420148000587, -0.01600000075995922, -0.03200000151991844, 0.9920000471174717, 0.0, 0.0, 0.0, 0.0, 0.0, 1.651184810950175E9, 0.0, 2022-04-28 15:26:50.950
20.0, 10.813920721877366, 1471.4561577662826, -4054.7247339598835, -3846.470274877269, -0.01600000075995922, -0.03200000151991844, 0.9920000471174717, 0.0, 0.0, 0.0, 0.0, 0.0, 1.651184810950175E9, 0.0, 2022-04-28 15:26:50.950
21.0, -41.54093875782564, 1650.0644299001433, -4229.106919143815, -4024.1417020722292, -0.01600000075995922, -0.04800000227987766, 0.9920000471174717, 0.0, 0.0, 0.0, 0.0, 0.0, 1.6511848109648757E9, 0.0, 2022-04-28 15:26:50.964
21.0, 26.4018237371929, 1623.4531717654318, -4294.442971369717, -3951.610082331579, -0.01600000075995922, -0.04800000227987766, 0.9920000471174717, 0.0, 0.0, 0.0, 0.0, 0.0, 1.6511848109648757E9, 0.0, 2022-04-28 15:26:50.964
22.0, 43.466987235005945, 1668.593764230609, -4179.409258582629, -3765.542579736095, -0.01600000075995922, -0.04800000227987766, 0.9920000471174717, 0.0, 0.0, 0.0, 0.0, 0.0, 1.6511848109959128E9, 0.0, 2022-04-28 15:26:50.995
22.0, -8.394205450545996, 1858.4329559314065, -4416.262732626405, -3918.407250524964, -0.01600000075995922, -0.04800000227987766, 0.9920000471174717, 0.0, 0.0, 0.0, 0.0, 0.0, 1.6511848109959128E9, 0.0, 2022-04-28 15:26:50.995
23.0, -45.38181601231918, 1669.9008592651226, -4526.954421564937, -4107.414314485621, -0.01600000075995922, -0.04800000227987766, 0.9920000471174717, 0.0, 0.0, 0.0, 0.0, 0.0, 1.6511848109965599E9, 0.0, 2022-04-28 15:26:50.996
23.0, 78.56594831915572, 1895.1288542966358, -4731.343694043346, -4214.83733086288, -0.01600000075995922, -0.04800000227987766, 0.9920000471174717, 0.0, 0.0, 0.0, 0.0, 0.0, 1.6511848109965599E9, 0.0, 2022-04-28 15:26:50.996
24.0, 1.41181223327294, 1921.5680770333856, -4969.958660966251, -4364.732521086931, -0.01600000075995922, -0.04800000227987766, 0.9920000471174717, 0.0, 0.0, 0.0, 0.0, 0.0, 1.65118481099732E9, 0.0, 2022-04-28 15:26:50.997
24.0, -60.16564053716138, 2040.4314473751, -5035.835128735751, -4601.928195976652, -0.01600000075995922, -0.04800000227987766, 0.9920000471174717, 0.0, 0.0, 0.0, 0.0, 0.0, 1.65118481099732E9, 0.0, 2022-04-28 15:26:50.997
25.0, 72.6082876897417, 1915.6515553034842, -5089.00902630575, -4762.001523930114, -0.01600000075995922, -0.04800000227987766, 0.9920000471174717, 0.0, 0.0, 0.0, 0.0, 0.0, 1.6511848109980595E9, 0.0, 2022-04-28 15:26:50.998
25.0, 11.778814910445362, 1961.1380885145627, -5032.484178375453, -4828.186533445958, -0.01600000075995922, -0.04800000227987766, 0.9920000471174717, 0.0, 0.0, 0.0, 0.0, 0.0, 1.6511848109980595E9, 0.0, 2022-04-28 15:26:50.998
26.0, -46.55240469845012, 2137.1134710796177, -5203.369557100814, -5005.397952946369, -0.01600000075995922, -0.04800000227987766, 0.9920000471174717, 0.0, 0.0, 0.0, 0.0, 0.0, 1.6511848110256689E9, 0.0, 2022-04-28 15:26:51.025
26.0, 29.027233506087214, 2116.549631173257, -5279.775713195559, -4926.45240478171, -0.01600000075995922, -0.04800000227987766, 0.9920000471174717, 0.0, 0.0, 0.0, 0.0, 0.0, 1.6511848110256689E9, 0.0, 2022-04-28 15:26:51.025
27.0, 44.08033082773909, 2158.6235056747682, -5158.440268983133, -4750.804263462778, -0.01600000075995922, -0.04800000227987766, 0.9920000471174717, 0.0, 0.0, 0.0, 0.0, 0.0, 1.651184811026416E9, 0.0, 2022-04-28 15:26:51.026
27.0, -9.744309334550053, 2352.8533399235457, -5396.247417515609, -4899.311950803269, -0.01600000075995922, -0.04800000227987766, 0.9920000471174717, 0.0, 0.0, 0.0, 0.0, 0.0, 1.651184811026416E9, 0.0, 2022-04-28 15:26:51.026
28.0, -43.74747973168269, 2169.6057218946517, -5505.9255935661495, -5093.581054001581, -0.01600000075995922, -0.04800000227987766, 0.9920000471174717, 0.0, 0.0, 0.0, 0.0, 0.0, 1.651184811039492E9, 0.0, 2022-04-28 15:26:51.039
28.0, 81.06420148955658, 2386.112270229496, -5712.801899515092, -5194.489164656028, -0.01600000075995922, -0.04800000227987766, 0.9920000471174717, 0.0, 0.0, 0.0, 0.0, 0.0, 1.651184811039492E9, 0.0, 2022-04-28 15:26:51.039
29.0, 3.2892420110292733, 2411.3771643801592, -5949.28886336321, -5345.764377963729, -0.01600000075995922, -0.04800000227987766, 0.9920000471174717, 0.0, 0.0, 0.0, 0.0, 0.0, 1.6511848110401757E9, 0.0, 2022-04-28 15:26:51.040
29.0, -63.557729796972126, 2530.741681315936, -6016.975442711264, -5585.23391202651, -0.01600000075995922, -0.04800000227987766, 0.9920000471174717, 0.0, 0.0, 0.0, 0.0, 0.0, 1.6511848110401757E9, 0.0, 2022-04-28 15:26:51.040
30.0, 76.41924574458972, 2411.6726164766587, -6077.760036691092, -5740.748301933985, -0.01600000075995922, -0.04800000227987766, 0.9920000471174717, 0.0, 0.0, 0.0, 0.0, 0.0, 1.6511848110549016E9, 0.0, 2022-04-28 15:26:51.054
30.0, 14.067633683327585, 2449.443736079149, -6014.690363838337, -5803.144792794716, -0.01600000075995922, -0.04800000227987766, 0.9920000471174717, 0.0, 0.0, 0.0, 0.0, 0.0, 1.6511848110549016E9, 0.0, 2022-04-28 15:26:51.054
31.0, -41.866310053970665, 2628.818687703926, -6179.921013830695, -5982.588932568673, -0.01600000075995922, -0.04800000227987766, 0.9920000471174717, 0.0, 0.0, 0.0, 0.0, 0.0, 1.6511848110695376E9, 0.0, 2022-04-28 15:26:51.069
31.0, 27.23582142731175, 2617.593377986923, -6265.579682415817, -5904.967308988329, -0.01600000075995922, -0.04800000227987766, 0.9920000471174717, 0.0, 0.0, 0.0, 0.0, 0.0, 1.6511848110695376E9, 0.0, 2022-04-28 15:26:51.069
32.0, 39.94774137670174, 2647.1722467364743, -6139.767577956431, -5728.87411957467, -0.01600000075995922, -0.04800000227987766, 0.9920000471174717, 0.0, 0.0, 0.0, 0.0, 0.0, 1.65118481107033E9, 0.0, 2022-04-28 15:26:51.070
32.0, -9.493736037518829, 2837.217132934835, -6371.949916955549, -5880.25405008113, -0.01600000075995922, -0.04800000227987766, 0.9920000471174717, 0.0, 0.0, 0.0, 0.0, 0.0, 1.65118481107033E9, 0.0, 2022-04-28 15:26:51.070
33.0, -42.83868404245004, 2658.730407549534, -6487.2940414389595, -6071.116104419809, -0.01600000075995922, -0.04800000227987766, 0.9920000471174717, 0.0, 0.0, 0.0, 0.0, 0.0, 1.6511848110844388E9, 0.0, 2022-04-28 15:26:51.084
33.0, 77.22706413501874, 2869.9674368468113, -6689.2972577456385, -6176.250302024186, -0.01600000075995922, -0.04800000227987766, 0.9920000471174717, 0.0, 0.0, 0.0, 0.0, 0.0, 1.6511848110844388E9, 0.0, 2022-04-28 15:26:51.084
34.0, 2.941431315150112, 2900.7898223316297, -6931.648384724278, -6333.060567266308, -0.01600000075995922, -0.04800000227987766, 0.9920000471174717, 0.0, 0.0, 0.0, 0.0, 0.0, 1.6511848110851784E9, 0.0, 2022-04-28 15:26:51.085
34.0, -60.61816843179986, 3020.9546778579243, -6995.3220514198765, -6565.757142509334, -0.01600000075995922, -0.04800000227987766, 0.9920000471174717, 0.0, 0.0, 0.0, 0.0, 0.0, 1.6511848110851784E9, 0.0, 2022-04-28 15:26:51.085
35.0, 78.86140041565523, 2902.267082814127, -7059.412716960534, -6723.661328488495, -0.01600000075995922, -0.04800000227987766, 0.9920000471174717, 0.0, 0.0, 0.0, 0.0, 0.0, 1.6511848111152017E9, 0.0, 2022-04-28 15:26:51.115
35.0, 7.137599065434188, 2938.755416731816, -6992.401189554483, -6785.3472383576445, -0.01600000075995922, -0.04800000227987766, 0.9920000471174717, 0.0, 0.0, 0.0, 0.0, 0.0, 1.6511848111152017E9, 0.0, 2022-04-28 15:26:51.115
36.0, -42.83494414249435, 3114.1324153039604, -7156.906298955437, -6961.31327117281, -0.01600000075995922, -0.04800000227987766, 0.9920000471174717, 0.0, 0.0, 0.0, 0.0, 0.0, 1.6511848111160634E9, 0.0, 2022-04-28 15:26:51.116
36.0, 27.018907229881734, 3109.855839704629, -7251.731462331954, -6881.515025818255, -0.01600000075995922, -0.04800000227987766, 0.9920000471174717, 0.0, 0.0, 0.0, 0.0, 0.0, 1.6511848111160634E9, 0.0, 2022-04-28 15:26:51.116
37.0, 41.062231563497335, 3131.603357946966, -7120.840573732741, -6708.223021471407, -0.01600000075995922, -0.04800000227987766, 0.9920000471174717, 0.0, 0.0, 0.0, 0.0, 0.0, 1.651184811116661E9, 0.0, 2022-04-28 15:26:51.116
37.0, -10.69424392329529, 3324.655123709701, -7353.108930430841, -6859.879704574589, -0.01600000075995922, -0.04800000227987766, 0.9920000471174717, 0.0, 0.0, 0.0, 0.0, 0.0, 1.651184811116661E9, 0.0, 2022-04-28 15:26:51.116
38.0, -42.95462094107643, 3154.852446021512, -7466.9870141316205, -7052.495771992486, -0.01600000075995922, -0.04800000227987766, 0.9920000471174717, 0.0, 0.0, 0.0, 0.0, 0.0, 1.6511848111287644E9, 0.0, 2022-04-28 15:26:51.128
38.0, 78.04236232535914, 3360.655400683172, -7672.393539397977, -7156.481820310466, -0.01600000075995922, -0.04800000227987766, 0.9920000471174717, 0.0, 0.0, 0.0, 0.0, 0.0, 1.6511848111287644E9, 0.0, 2022-04-28 15:26:51.128
39.0, 4.893659092020243, 3389.589136690367, -7906.52436627401, -7312.16263576597, -0.01600000075995922, -0.04800000227987766, 0.9920000471174717, 0.0, 0.0, 0.0, 0.0, 0.0, 1.6511848111612892E9, 0.0, 2022-04-28 15:26:51.161
39.0, -63.39317419892177, 3515.7340922458097, -7975.142180711031, -7545.854024397209, -0.01600000075995922, -0.04800000227987766, 0.9920000471174717, 0.0, 0.0, 0.0, 0.0, 0.0, 1.6511848111612892E9, 0.0, 2022-04-28 15:26:51.161
40.0, 80.08060780121014, 3391.2010335712694, -8042.8680290086195, -7701.125320807565, -0.01600000075995922, -0.04800000227987766, 0.9760000463575125, 0.0, 0.0, 0.0, 0.0, 0.0, 1.6511848111621284E9, 0.0, 2022-04-28 15:26:51.162
40.0, 10.350173127371818, 3426.806751099415, -7966.304797115736, -7772.205859365407, -0.01600000075995922, -0.04800000227987766, 0.9760000463575125, 0.0, 0.0, 0.0, 0.0, 0.0, 1.6511848111621284E9, 0.0, 2022-04-28 15:26:51.162
41.0, -44.7422931198962, 3600.0071278973483, -8134.460048873443, -7951.556501640473, -0.01600000075995922, -0.04800000227987766, 0.9760000463575125, 0.0, 0.0, 0.0, 0.0, 0.0, 1.6511848111627233E9, 0.0, 2022-04-28 15:26:51.162
41.0, 28.78414000896737, 3604.9961544382386, -8233.036331905518, -7862.169152799528, -0.01600000075995922, -0.04800000227987766, 0.9760000463575125, 0.0, 0.0, 0.0, 0.0, 0.0, 1.6511848111627233E9, 0.0, 2022-04-28 15:26:51.162
42.0, 42.76762594329193, 3616.4065892030485, -8093.521234008484, -7692.415093810763, -0.01600000075995922, -0.04800000227987766, 0.9760000463575125, 0.0, 0.0, 0.0, 0.0, 0.0, 1.6511848111744902E9, 0.0, 2022-04-28 15:26:51.174
42.0, -9.740569434594363, 3808.429882477969, -8329.234038565774, -7845.937986991834, -0.01600000075995922, -0.04800000227987766, 0.9760000463575125, 0.0, 0.0, 0.0, 0.0, 0.0, 1.6511848111744902E9, 0.0, 2022-04-28 15:26:51.174
43.0, -42.81998454267159, 3649.4429954616353, -8451.257624370046, -8030.382373006549, -0.01600000075995922, -0.04800000227987766, 0.9760000463575125, 0.0, 0.0, 0.0, 0.0, 0.0, 1.6511848111751962E9, 0.0, 2022-04-28 15:26:51.175
43.0, 76.03403604915366, 3853.357300645672, -8655.463641750626, -8135.718525208533, -0.01600000075995922, -0.04800000227987766, 0.9760000463575125, 0.0, 0.0, 0.0, 0.0, 0.0, 1.6511848111751962E9, 0.0, 2022-04-28 15:26:51.175
44.0, 2.369226621929556, 3880.753937771078, -8887.148574055638, -8296.904473398812, -0.01600000075995922, -0.04800000227987766, 0.9760000463575125, 0.0, 0.0, 0.0, 0.0, 0.0, 1.651184811204918E9, 0.0, 2022-04-28 15:26:51.204
44.0, -62.99674480361864, 4003.6377005651593, -8950.407111856155, -8527.581502665766, -0.01600000075995922, -0.04800000227987766, 0.9760000463575125, 0.0, 0.0, 0.0, 0.0, 0.0, 1.651184811204918E9, 0.0, 2022-04-28 15:26:51.204
45.0, 78.22935732314363, 3884.4863579268567, -9024.909658873454, -8682.534907579888, -0.01600000075995922, -0.04800000227987766, 0.9760000463575125, 0.0, 0.0, 0.0, 0.0, 0.0, 1.6511848112055597E9, 0.0, 2022-04-28 15:26:51.205
45.0, 13.809580586384982, 3914.0259577268735, -8945.339547416195, -8750.077500779647, -0.01600000075995922, -0.04800000227987766, 0.9760000463575125, 0.0, 0.0, 0.0, 0.0, 0.0, 1.6511848112055597E9, 0.0, 2022-04-28 15:26:51.205
46.0, -42.8162446427159, 4089.9527215925045, -9113.857569469605, -8931.739401227329, -0.01600000075995922, -0.04800000227987766, 0.9760000463575125, 0.0, 0.0, 0.0, 0.0, 0.0, 1.6511848112194684E9, 0.0, 2022-04-28 15:26:51.219
46.0, 28.43258941313252, 4103.685634229798, -9218.432652030606, -8841.89578459179, -0.01600000075995922, -0.04800000227987766, 0.9760000463575125, 0.0, 0.0, 0.0, 0.0, 0.0, 1.6511848112194684E9, 0.0, 2022-04-28 15:26:51.219
47.0, 41.53345895791426, 4101.430474556517, -9075.312290576287, -8672.575553997885, -0.01600000075995922, -0.04800000227987766, 0.9760000463575125, 0.0, 0.0, 0.0, 0.0, 0.0, 1.6511848112201967E9, 0.0, 2022-04-28 15:26:51.220
47.0, -7.769642157945782, 4300.32396405004, -9307.928457970265, -8817.36578078242, -0.01600000075995922, -0.04800000227987766, 0.9760000463575125, 0.0, 0.0, 0.0, 0.0, 0.0, 1.6511848112201967E9, 0.0, 2022-04-28 15:26:51.220
48.0, -44.35708342446014, 4144.923641091213, -9433.190797136165, -9008.429789718706, -0.01600000075995922, -0.04800000227987766, 0.9760000463575125, 0.0, 0.0, 0.0, 0.0, 0.0, 1.651184811266498E9, 0.0, 2022-04-28 15:26:51.266
48.0, 74.35482096904889, 4337.337753911503, -9635.078076544218, -9117.453483277, -0.01600000075995922, -0.04800000227987766, 0.9760000463575125, 0.0, 0.0, 0.0, 0.0, 0.0, 1.651184811266498E9, 0.0, 2022-04-28 15:26:51.266
49.0, 3.3528203102760017, 4367.789889300708, -9868.135552132968, -9273.197877031751, -0.01600000075995922, -0.04800000227987766, 0.9760000463575125, 0.0, 0.0, 0.0, 0.0, 0.0, 1.6511848112671764E9, 0.0, 2022-04-28 15:26:51.267
49.0, -62.85088870534673, 4493.684271559119, -9930.283339646645, -9506.410558468662, -0.01600000075995922, -0.04800000227987766, 0.9760000463575125, 0.0, 0.0, 0.0, 0.0, 0.0, 1.6511848112671764E9, 0.0, 2022-04-28 15:26:51.267
50.0, 78.67814531782642, 4373.403479134198, -10010.190042099915, -9658.286025719251, -0.01600000075995922, -0.04800000227987766, 0.9920000471174717, 0.0, 0.0, 0.0, 0.0, 0.0, 1.6511848112679372E9, 0.0, 2022-04-28 15:26:51.267
50.0, 11.273928416427225, 4401.817369047552, -9929.288526258431, -9729.224448078778, -0.01600000075995922, -0.04800000227987766, 0.9920000471174717, 0.0, 0.0, 0.0, 0.0, 0.0, 1.6511848112679372E9, 0.0, 2022-04-28 15:26:51.267
51.0, -46.720700196456164, 4577.134529220406, -10092.009703380521, -9911.323916821275, -0.01600000075995922, -0.04800000227987766, 0.9920000471174717, 0.0, 0.0, 0.0, 0.0, 0.0, 1.6511848112687223E9, 0.0, 2022-04-28 15:26:51.268
51.0, 31.488087676931173, 4597.386087480467, -10203.757914056536, -9818.57813782012, -0.01600000075995922, -0.04800000227987766, 0.9920000471174717, 0.0, 0.0, 0.0, 0.0, 0.0, 1.6511848112687223E9, 0.0, 2022-04-28 15:26:51.268
52.0, 39.94400147674605, 4587.755845094565, -10058.449711128138, -9654.841577860061, -0.01600000075995922, -0.04800000227987766, 0.9920000471174717, 0.0, 0.0, 0.0, 0.0, 0.0, 1.6511848112795656E9, 0.0, 2022-04-28 15:26:51.279
52.0, -7.556467860471457, 4787.382354979403, -10287.96550145885, -9803.319346000906, -0.01600000075995922, -0.04800000227987766, 0.9920000471174717, 0.0, 0.0, 0.0, 0.0, 0.0, 1.6511848112795656E9, 0.0, 2022-04-28 15:26:51.279
53.0, -39.846764077898115, 4634.229711893946, -10413.407355822623, -9981.031912095379, -0.01600000075995922, -0.04800000227987766, 0.9920000471174717, 0.0, 0.0, 0.0, 0.0, 0.0, 1.651184811280164E9, 0.0, 2022-04-28 15:26:51.280
53.0, 77.92268552677706, 4832.253674647771, -10615.519029228017, -10095.310165091418, -0.01600000075995922, -0.04800000227987766, 0.9920000471174717, 0.0, 0.0, 0.0, 0.0, 0.0, 1.651184811280164E9, 0.0, 2022-04-28 15:26:51.280
54.0, 1.7147441296838224, 4864.811373712029, -10850.790525590535, -10255.3479639953, -0.01600000075995922, -0.04800000227987766, 0.9920000471174717, 0.0, 0.0, 0.0, 0.0, 0.0, 1.6511848112944694E9, 0.0, 2022-04-28 15:26:51.294
54.0, -57.966579363215715, 4985.712989529595, -10908.128801761195, -10486.066132161766, -0.01600000075995922, -0.04800000227987766, 0.9920000471174717, 0.0, 0.0, 0.0, 0.0, 0.0, 1.6511848112944694E9, 0.0, 2022-04-28 15:26:51.294
55.0, 78.65570591809228, 4863.049880832899, -10990.410340686329, -10634.478452053387, -0.01600000075995922, -0.04800000227987766, 0.9920000471174717, 0.0, 0.0, 0.0, 0.0, 0.0, 1.6511848112952101E9, 0.0, 2022-04-28 15:26:51.295
55.0, 10.862539421301335, 4892.787695330568, -10904.60955590289, -10711.030464246403, -0.01600000075995922, -0.04800000227987766, 0.9920000471174717, 0.0, 0.0, 0.0, 0.0, 0.0, 1.6511848112952101E9, 0.0, 2022-04-28 15:26:51.295
56.0, -46.12231620354578, 5066.406940923538, -11069.993541793432, -10892.61008689506, -0.01600000075995922, -0.04800000227987766, 0.9920000471174717, 0.0, 0.0, 0.0, 0.0, 0.0, 1.6511848113088124E9, 0.0, 2022-04-28 15:26:51.308
56.0, 30.960761783178896, 5095.196690782439, -11189.558143376838, -10794.426493358333, -0.01600000075995922, -0.04800000227987766, 0.9920000471174717, 0.0, 0.0, 0.0, 0.0, 0.0, 1.6511848113088124E9, 0.0, 2022-04-28 15:26:51.308
57.0, 41.058491663541645, 5083.775036317762, -11031.986808493733, -10633.786570561584, -0.01600000075995922, -0.04800000227987766, 0.9920000471174717, 0.0, 0.0, 0.0, 0.0, 0.0, 1.651184811340844E9, 0.0, 2022-04-28 15:26:51.340
57.0, -11.004655619617552, 5276.018983690068, -11265.848362572957, -10780.903015118558, -0.01600000075995922, -0.04800000227987766, 0.9920000471174717, 0.0, 0.0, 0.0, 0.0, 0.0, 1.651184811340844E9, 0.0, 2022-04-28 15:26:51.340
58.0, -37.62152360426262, 5129.710357523523, -11397.341375065036, -10963.76168355206, -0.01600000075995922, -0.04800000227987766, 0.9920000471174717, 0.0, 0.0, 0.0, 0.0, 0.0, 1.651184811341644E9, 0.0, 2022-04-28 15:26:51.341
58.0, 75.70118495309725, 5316.282746613026, -11595.21948172059, -11077.063822659664, -0.01600000075995922, -0.04800000227987766, 0.9920000471174717, 0.0, 0.0, 0.0, 0.0, 0.0, 1.651184811341644E9, 0.0, 2022-04-28 15:26:51.341
59.0, 3.5659946077503264, 5356.6269173850305, -11829.49990459485, -11230.059389946982, -0.01600000075995922, -0.04800000227987766, 0.9920000471174717, 0.0, 0.0, 0.0, 0.0, 0.0, 1.6511848113423624E9, 0.0, 2022-04-28 15:26:51.342
59.0, -61.74387831846252, 5473.197729053907, -11890.589300421067, -11472.311409576796, -0.01600000075995922, -0.04800000227987766, 0.9920000471174717, 0.0, 0.0, 0.0, 0.0, 0.0, 1.6511848113423624E9, 0.0, 2022-04-28 15:26:51.342
60.0, 77.97130422620103, 5360.834304835182, -11977.194163694978, -11618.648084993009, -0.01600000075995922, -0.04800000227987766, 0.9920000471174717, 0.0, 0.0, 0.0, 0.0, 0.0, 1.6511848113430834E9, 0.0, 2022-04-28 15:26:51.343
60.0, 10.701723723206669, 5382.598652627319, -11883.932278499939, -11692.481189918239, -0.01600000075995922, -0.04800000227987766, 0.9920000471174717, 0.0, 0.0, 0.0, 0.0, 0.0, 1.6511848113430834E9, 0.0, 2022-04-28 15:26:51.343
61.0, -49.02821846911684, 5556.805062513333, -12047.18078151578, -11878.320558616426, -0.01600000075995922, -0.04800000227987766, 0.9920000471174717, 0.0, 0.0, 0.0, 0.0, 0.0, 1.6511848113538074E9, 0.0, 2022-04-28 15:26:51.353
61.0, 32.0715120700188, 5590.366924715694, -12172.056041036267, -11774.298981248867, -0.01600000075995922, -0.04800000227987766, 0.9920000471174717, 0.0, 0.0, 0.0, 0.0, 0.0, 1.6511848113538074E9, 0.0, 2022-04-28 15:26:51.353
62.0, 41.34646396012977, 5568.103300279472, -12009.013232517987, -11620.69381026877, -0.01600000075995922, -0.04800000227987766, 0.9920000471174717, 0.0, 0.0, 0.0, 0.0, 0.0, 1.6511848113687675E9, 0.0, 2022-04-28 15:26:51.368
62.0, -12.956883396487683, 5764.749109899625, -12243.686344887596, -11771.329500684049, -0.01600000075995922, -0.04800000227987766, 0.9920000471174717, 0.0, 0.0, 0.0, 0.0, 0.0, 1.6511848113687675E9, 0.0, 2022-04-28 15:26:51.368
63.0, -38.7771526905708, 5623.9418765679, -12377.722489349544, -11945.866891716141, -0.01600000075995922, -0.04800000227987766, 0.9920000471174717, 0.0, 0.0, 0.0, 0.0, 0.0, 1.6511848113850112E9, 0.0, 2022-04-28 15:26:51.385
63.0, 76.4229856445454, 5805.83939071279, -12575.821250102483, -12056.412724556401, -0.01600000075995922, -0.04800000227987766, 0.9920000471174717, 0.0, 0.0, 0.0, 0.0, 0.0, 1.6511848113850112E9, 0.0, 2022-04-28 15:26:51.385
64.0, 2.3093882226385176, 5838.094157880638, -12809.13303888822, -12217.909084443003, -0.01600000075995922, -0.04800000227987766, 0.9920000471174717, 0.0, 0.0, 0.0, 0.0, 0.0, 1.6511848113994603E9, 0.0, 2022-04-28 15:26:51.399
64.0, -61.29135042382404, 5963.4911334449425, -12869.156563227065, -12446.476810134947, -0.01600000075995922, -0.04800000227987766, 0.9920000471174717, 0.0, 0.0, 0.0, 0.0, 0.0, 1.6511848113994603E9, 0.0, 2022-04-28 15:26:51.399
65.0, 77.91894562682137, 5844.926955099683, -12956.303711994551, -12594.672215829138, -0.01600000075995922, -0.04800000227987766, 0.9920000471174717, 0.0, 0.0, 0.0, 0.0, 0.0, 1.6511848114002516E9, 0.0, 2022-04-28 15:26:51.400
65.0, 12.728749499190599, 5867.117651486769, -12870.772200007923, -12676.336671261583, -0.01600000075995922, -0.04800000227987766, 0.9920000471174717, 0.0, 0.0, 0.0, 0.0, 0.0, 1.6511848114002516E9, 0.0, 2022-04-28 15:26:51.400
66.0, -47.487379687372595, 6039.648586192634, -13029.297209379729, -12857.000018421095, -0.01600000075995922, -0.04800000227987766, 0.9920000471174717, 0.0, 0.0, 0.0, 0.0, 0.0, 1.6511848114144409E9, 0.0, 2022-04-28 15:26:51.414
66.0, 34.225694444496185, 6085.855050145183, -13156.352830574382, -12754.350984337274, -0.01600000075995922, -0.04800000227987766, 0.9920000471174717, 0.0, 0.0, 0.0, 0.0, 0.0, 1.6511848114144409E9, 0.0, 2022-04-28 15:26:51.414
67.0, 41.7802923549898, 6051.455450352747, -12988.287336415611, -12600.798171956558, -0.01600000075995922, -0.04800000227987766, 0.9920000471174717, 0.0, 0.0, 0.0, 0.0, 0.0, 1.6511848114151504E9, 0.0, 2022-04-28 15:26:51.415
