%OpenBCI Raw EEG Data
%Number of channels = 4
%Sample Rate = 200 Hz
%Board = OpenBCI_GUI$BoardGanglionBLE
Sample Index, EXG Channel 0, EXG Channel 1, EXG Channel 2, EXG Channel 3, Accel Channel 0, Accel Channel 1, Accel Channel 2, Other, Other, Other, Other, Other, Timestamp, Other, Timestamp (Formatted)
0.0, -63.798953344114125, 6812.005245241802, 2539.5790649112314, -2938.9667210793123, 0.0, 0.0, 0.0, 0.0, 0.0, 0.0, 0.0, 0.0, 1.6511848938394227E9, 0.0, 2022-04-28 15:28:13.839
1.0, -14.52203152794391, 6902.505214319564, 2771.752054160461, -2748.5740241850726, 0.0, -0.04800000227987766, 0.0, 0.0, 0.0, 0.0, 0.0, 0.0, 1.6511848938401177E9, 0.0, 2022-04-28 15:28:13.840
1.0, 38.71918424125761, 6712.80252896715, 2633.5627507977188, -2869.172708106227, 0.0, -0.04800000227987766, 0.0, 0.0, 0.0, 0.0, 0.0, 0.0, 1.6511848938401177E9, 0.0, 2022-04-28 15:28:13.840
2.0, -7.1843478148803115, 6594.032656124327, 2793.34997640457, -2870.803304486908, -0.01600000075995922, -0.04800000227987766, 0.0, 0.0, 0.0, 0.0, 0.0, 0.0, 1.6511848938549273E9, 0.0, 2022-04-28 15:28:13.854
2.0, -91.18624071963131, 6501.004514676519, 2794.6739009888843, -2752.8823889340274, -0.01600000075995922, -0.04800000227987766, 0.0, 0.0, 0.0, 0.0, 0.0, 0.0, 1.6511848938549273E9, 0.0, 2022-04-28 15:28:13.854
3.0, 61.92152356635779, 6630.44806199288, 2721.1736471597105, -2755.7864212496206, -0.01600000075995922, -0.04800000227987766, 0.0, 0.0, 0.0, 0.0, 0.0, 0.0, 1.6511848938562925E9, 0.0, 2022-04-28 15:28:13.856
3.0, 11.414174664765596, 6666.814849162009, 2501.7107079098932, -2951.4617268312722, -0.01600000075995922, -0.04800000227987766, 0.0, 0.0, 0.0, 0.0, 0.0, 0.0, 1.6511848938562925E9, 0.0, 2022-04-28 15:28:13.856
4.0, -102.23016528878361, 6704.094171920326, 2282.790054153651, -2887.6085449378006, -0.01600000075995922, -0.04800000227987766, 0.0, 0.0, 0.0, 0.0, 0.0, 0.0, 1.6511848938685873E9, 0.0, 2022-04-28 15:28:13.868
4.0, 49.310580915771425, 6604.190224403981, 2502.1033974052407, -3092.1829424640164, -0.01600000075995922, -0.04800000227987766, 0.0, 0.0, 0.0, 0.0, 0.0, 0.0, 1.6511848938685873E9, 0.0, 2022-04-28 15:28:13.868
5.0, 22.6039553321898, 6481.519635907374, 2501.5386725119315, -2877.3481294093654, -0.01600000075995922, -0.04800000227987766, 0.0, 0.0, 0.0, 0.0, 0.0, 0.0, 1.6511848938843248E9, 0.0, 2022-04-28 15:28:13.884
5.0, -61.13240467570722, 6310.118150988128, 2626.2306769345887, -3021.1659822054207, -0.01600000075995922, -0.04800000227987766, 0.0, 0.0, 0.0, 0.0, 0.0, 0.0, 1.6511848938843248E9, 0.0, 2022-04-28 15:28:13.884
6.0, -8.500792599283159, 6331.527208284475, 2750.776825258974, -3180.8148315139115, -0.01600000075995922, -0.04800000227987766, 0.0, 0.0, 0.0, 0.0, 0.0, 0.0, 1.651184893885068E9, 0.0, 2022-04-28 15:28:13.885
6.0, 43.12104648910463, 6316.698504960164, 2619.338041316252, -3326.1192945423536, -0.01600000075995922, -0.04800000227987766, 0.0, 0.0, 0.0, 0.0, 0.0, 0.0, 1.651184893885068E9, 0.0, 2022-04-28 15:28:13.885
7.0, -5.205940738320351, 6123.912272094283, 2813.3864904171787, -3409.7958161509596, -0.01600000075995922, -0.04800000227987766, 0.0, 0.0, 0.0, 0.0, 0.0, 0.0, 1.6511848938986323E9, 0.0, 2022-04-28 15:28:13.898
7.0, -90.12784903217107, 5955.719621337019, 2817.365743970033, -3287.0803488548845, -0.01600000075995922, -0.04800000227987766, 0.0, 0.0, 0.0, 0.0, 0.0, 0.0, 1.6511848938986323E9, 0.0, 2022-04-28 15:28:13.898
8.0, 68.20829539187253, 5734.3661626596, 2664.8488838770427, -3186.465820346959, -0.01600000075995922, -0.04800000227987766, 0.0, 0.0, 0.0, 0.0, 0.0, 0.0, 1.651184893914284E9, 0.0, 2022-04-28 15:28:13.914
8.0, 18.44892648141831, 5665.602492124308, 2546.2959252316505, -3429.4321608683094, -0.01600000075995922, -0.04800000227987766, 0.0, 0.0, 0.0, 0.0, 0.0, 0.0, 1.651184893914284E9, 0.0, 2022-04-28 15:28:13.914
9.0, -96.54177745617926, 5682.910749119241, 2374.621427615639, -3440.341449039057, -0.01600000075995922, -0.04800000227987766, 0.0, 0.0, 0.0, 0.0, 0.0, 0.0, 1.651184893915025E9, 0.0, 2022-04-28 15:28:13.915
9.0, 56.536067630164325, 5675.019560212735, 2449.383897679858, -3503.3868125420995, -0.01600000075995922, -0.04800000227987766, 0.0, 0.0, 0.0, 0.0, 0.0, 0.0, 1.651184893915025E9, 0.0, 2022-04-28 15:28:13.915
10.0, 27.103054978884757, 5533.903785134666, 2507.982520135585, -3358.521787758451, -0.01600000075995922, -0.04800000227987766, 0.9920000471174717, 0.0, 0.0, 0.0, 0.0, 0.0, 1.6511848939285817E9, 0.0, 2022-04-28 15:28:13.928
10.0, -58.47707570716739, 5339.789887784515, 2697.4009730913676, -3583.4356311936863, -0.01600000075995922, -0.04800000227987766, 0.9920000471174717, 0.0, 0.0, 0.0, 0.0, 0.0, 1.6511848939285817E9, 0.0, 2022-04-28 15:28:13.928
11.0, -6.593443621881306, 5282.288925965782, 2700.7818426513113, -3628.1648346637376, -0.01600000075995922, 0.09600000455975533, 0.9920000471174717, 0.0, 0.0, 0.0, 0.0, 0.0, 1.6511848939442327E9, 0.0, 2022-04-28 15:28:13.944
11.0, 42.821854492649436, 5405.958067750558, 2620.920018997509, -3814.5408790055662, -0.01600000075995922, 0.09600000455975533, 0.9920000471174717, 0.0, 0.0, 0.0, 0.0, 0.0, 1.6511848939442327E9, 0.0, 2022-04-28 15:28:13.944
12.0, -2.3935359716415405, 5178.147671799641, 2376.848538039252, -3933.0957076009363, -0.06400000303983688, 0.09600000455975533, 0.9920000471174717, 0.0, 0.0, 0.0, 0.0, 0.0, 1.6511848939450445E9, 0.0, 2022-04-28 15:28:13.945
12.0, -87.61089636199176, 5349.042400274891, 2349.1901079169475, -3793.158001008909, -0.06400000303983688, 0.09600000455975533, 0.9920000471174717, 0.0, 0.0, 0.0, 0.0, 0.0, 1.6511848939450445E9, 0.0, 2022-04-28 15:28:13.945
13.0, 72.59519803989679, 5310.349395333324, 2112.847130217124, -3616.9713140963577, -0.06400000303983688, 0.09600000455975533, 0.9920000471174717, 0.0, 0.0, 0.0, 0.0, 0.0, 1.6511848939586885E9, 0.0, 2022-04-28 15:28:13.958
13.0, 15.909534411504865, 5252.71940696612, 2037.0150487655774, -3420.5760777732357, -0.06400000303983688, 0.09600000455975533, 0.9920000471174717, 0.0, 0.0, 0.0, 0.0, 0.0, 1.6511848939586885E9, 0.0, 2022-04-28 15:28:13.958
14.0, -94.4885723805055, 5185.713489410002, 1962.0543640037067, -3504.2563392817974, -0.06400000303983688, 0.09600000455975533, 0.9920000471174717, 0.0, 0.0, 0.0, 0.0, 0.0, 1.6511848939743135E9, 0.0, 2022-04-28 15:28:13.974
14.0, 54.112612458877265, 5220.851719443686, 1865.639743146021, -3409.102064709179, -0.06400000303983688, 0.09600000455975533, 0.9920000471174717, 0.0, 0.0, 0.0, 0.0, 0.0, 1.6511848939743135E9, 0.0, 2022-04-28 15:28:13.974
15.0, 26.347595187835395, 5077.862254487816, 2026.2665762929246, -3356.967859326862, -0.06400000303983688, 0.09600000455975533, 0.9920000471174717, 0.0, 0.0, 0.0, 0.0, 0.0, 1.6511848939750493E9, 0.0, 2022-04-28 15:28:13.975
15.0, -57.1381915230304, 4894.930658005178, 2270.5082226991653, -3150.4599335235544, -0.06400000303983688, 0.09600000455975533, 0.9920000471174717, 0.0, 0.0, 0.0, 0.0, 0.0, 1.6511848939750493E9, 0.0, 2022-04-28 15:28:13.975
16.0, -4.910488641820848, 4723.848934532143, 2143.948138248641, -3038.939856744837, -0.06400000303983688, 0.09600000455975533, 0.9920000471174717, 0.0, 0.0, 0.0, 0.0, 0.0, 1.6511848939885883E9, 0.0, 2022-04-28 15:28:13.988
16.0, 47.657545135356486, 4497.988896408118, 2097.936149093788, -2799.8069136780687, -0.06400000303983688, 0.09600000455975533, 0.9920000471174717, 0.0, 0.0, 0.0, 0.0, 0.0, 1.6511848939885883E9, 0.0, 2022-04-28 15:28:13.988
17.0, -2.453374370932579, 4742.26420191396, 1921.4334406349808, -2976.853777580429, -0.06400000303983688, 0.09600000455975533, 0.9920000471174717, 0.0, 0.0, 0.0, 0.0, 0.0, 1.6511848940042853E9, 0.0, 2022-04-28 15:28:14.004
17.0, -83.35489021241665, 4770.137676283717, 1880.8760955655016, -2819.7424503918737, -0.06400000303983688, 0.09600000455975533, 0.9920000471174717, 0.0, 0.0, 0.0, 0.0, 0.0, 1.6511848940042853E9, 0.0, 2022-04-28 15:28:14.004
18.0, 75.28792600799352, 4926.549642180558, 2049.9326632125303, -3028.2474827715196, -0.06400000303983688, 0.09600000455975533, 0.9920000471174717, 0.0, 0.0, 0.0, 0.0, 0.0, 1.6511848940050924E9, 0.0, 2022-04-28 15:28:14.005
18.0, 23.538930321112275, 4751.595252303407, 2029.035972210113, -2921.3443124881014, -0.06400000303983688, 0.09600000455975533, 0.9920000471174717, 0.0, 0.0, 0.0, 0.0, 0.0, 1.6511848940050924E9, 0.0, 2022-04-28 15:28:14.005
19.0, -90.96558662224561, 4624.010435265023, 2056.9356258795597, -3118.0256511578336, -0.06400000303983688, 0.09600000455975533, 0.9920000471174717, 0.0, 0.0, 0.0, 0.0, 0.0, 1.6511848940185688E9, 0.0, 2022-04-28 15:28:14.018
19.0, 58.62293180543929, 4755.140677461401, 2261.2070915093645, -3295.852284200955, -0.06400000303983688, 0.09600000455975533, 0.9920000471174717, 0.0, 0.0, 0.0, 0.0, 0.0, 1.6511848940185688E9, 0.0, 2022-04-28 15:28:14.018
20.0, 32.17061941884458, 4608.70676464634, 2498.419595948886, -3330.2088751439005, -0.06400000303983688, 0.09600000455975533, 0.49600002355873585, 0.0, 0.0, 0.0, 0.0, 0.0, 1.6511848940342746E9, 0.0, 2022-04-28 15:28:14.034
20.0, -56.913797525689006, 4406.451105092652, 2381.77024638094, -3266.1537386528216, -0.06400000303983688, 0.09600000455975533, 0.49600002355873585, 0.0, 0.0, 0.0, 0.0, 0.0, 1.6511848940342746E9, 0.0, 2022-04-28 15:28:14.034
21.0, 3.2761523611843586, 4632.047480269801, 2586.9187185503542, -3482.4976013395935, -0.06400000303983688, 0.12800000607967377, 0.49600002355873585, 0.0, 0.0, 0.0, 0.0, 0.0, 1.6511848940350068E9, 0.0, 2022-04-28 15:28:14.035
21.0, 53.05796067137271, 4587.5725899967365, 2552.792131454684, -3715.4017410301603, -0.06400000303983688, 0.12800000607967377, 0.49600002355873585, 0.0, 0.0, 0.0, 0.0, 0.0, 1.6511848940350068E9, 0.0, 2022-04-28 15:28:14.035
22.0, 1.286525584757328, 4759.342455061618, 2440.746598732192, -3509.2827648222446, -0.0800000037997961, 0.12800000607967377, 0.49600002355873585, 0.0, 0.0, 0.0, 0.0, 0.0, 1.651184894048582E9, 0.0, 2022-04-28 15:28:14.048
22.0, -80.25077324919403, 4666.684563709423, 2443.8320161956362, -3374.633276767563, -0.0800000037997961, 0.12800000607967377, 0.49600002355873585, 0.0, 0.0, 0.0, 0.0, 0.0, 1.651184894048582E9, 0.0, 2022-04-28 15:28:14.048
23.0, 75.87135040108114, 4516.269527391531, 2427.3427972909994, -3410.02955989819, -0.0800000037997961, 0.12800000607967377, 0.49600002355873585, 0.0, 0.0, 0.0, 0.0, 0.0, 1.6511848940642705E9, 0.0, 2022-04-28 15:28:14.064
23.0, 26.441092686727643, 4282.815622407477, 2537.217318089213, -3416.955854616128, -0.0800000037997961, 0.12800000607967377, 0.49600002355873585, 0.0, 0.0, 0.0, 0.0, 0.0, 1.6511848940642705E9, 0.0, 2022-04-28 15:28:14.064
24.0, -95.14679477270693, 4110.912990894169, 2673.117802679073, -3253.3333616047166, -0.0800000037997961, 0.12800000607967377, 0.49600002355873585, 0.0, 0.0, 0.0, 0.0, 0.0, 1.6511848940650103E9, 0.0, 2022-04-28 15:28:14.065
24.0, 64.72270863316953, 4293.496776680928, 2628.059488012921, -3170.0345698916353, -0.0800000037997961, 0.12800000607967377, 0.49600002355873585, 0.0, 0.0, 0.0, 0.0, 0.0, 1.6511848940650103E9, 0.0, 2022-04-28 15:28:14.065
25.0, 34.93814538605511, 4213.438608279452, 2474.286021534819, -3314.5162549298257, -0.0800000037997961, 0.12800000607967377, 0.49600002355873585, 0.0, 0.0, 0.0, 0.0, 0.0, 1.651184894078524E9, 0.0, 2022-04-28 15:28:14.078
25.0, -53.0617005713284, 4421.0741139194, 2459.8443978559226, -3350.056524208747, -0.0800000037997961, 0.12800000607967377, 0.49600002355873585, 0.0, 0.0, 0.0, 0.0, 0.0, 1.651184894078524E9, 0.0, 2022-04-28 15:28:14.078
26.0, 7.801431307569146, 4595.96866539726, 2520.4756559375674, -3395.9656661148183, -0.0800000037997961, 0.12800000607967377, 0.49600002355873585, 0.0, 0.0, 0.0, 0.0, 0.0, 1.6511848940942256E9, 0.0, 2022-04-28 15:28:14.094
26.0, 54.60253935307264, 4712.457199267112, 2489.9356328994036, -3179.1113070840947, -0.0800000037997961, 0.12800000607967377, 0.49600002355873585, 0.0, 0.0, 0.0, 0.0, 0.0, 1.6511848940942256E9, 0.0, 2022-04-28 15:28:14.094
27.0, 3.0704578636214137, 4848.37638335675, 2478.0072219907306, -3050.4531387584284, -0.0800000037997961, 0.12800000607967377, 0.49600002355873585, 0.0, 0.0, 0.0, 0.0, 0.0, 1.651184894095004E9, 0.0, 2022-04-28 15:28:14.095
27.0, -74.97377441171557, 5076.300846256316, 2491.5793189299293, -2909.748752675485, -0.0800000037997961, 0.12800000607967377, 0.49600002355873585, 0.0, 0.0, 0.0, 0.0, 0.0, 1.651184894095004E9, 0.0, 2022-04-28 15:28:14.095
28.0, 82.6704885205254, 5139.858576053288, 2319.394324969966, -2804.8370791184716, -0.0800000037997961, 0.12800000607967377, 0.49600002355873585, 0.0, 0.0, 0.0, 0.0, 0.0, 1.6511848941085773E9, 0.0, 2022-04-28 15:28:14.108
28.0, 13.908687935210764, 5318.218144840095, 2501.433955313172, -2901.7453667703085, -0.0800000037997961, 0.12800000607967377, 0.49600002355873585, 0.0, 0.0, 0.0, 0.0, 0.0, 1.6511848941085773E9, 0.0, 2022-04-28 15:28:14.108
29.0, -93.228226095438, 5080.822385302745, 2282.0121549628675, -2864.497833161615, -0.0800000037997961, 0.12800000607967377, 0.49600002355873585, 0.0, 0.0, 0.0, 0.0, 0.0, 1.651184894124236E9, 0.0, 2022-04-28 15:28:14.124
29.0, 67.59121189918369, 4857.034251754172, 2497.518280059565, -3027.6715381783433, -0.0800000037997961, 0.12800000607967377, 0.49600002355873585, 0.0, 0.0, 0.0, 0.0, 0.0, 1.651184894124236E9, 0.0, 2022-04-28 15:28:14.124
30.0, 34.68009228911251, 4744.898961432744, 2472.453470556531, -2814.444882104639, -0.0800000037997961, 0.12800000607967377, 0.7360000349581242, 0.0, 0.0, 0.0, 0.0, 0.0, 1.6511848941250715E9, 0.0, 2022-04-28 15:28:14.125
30.0, -53.18511726986617, 4972.262439338956, 2567.4244900313206, -2964.332592528779, -0.0800000037997961, 0.12800000607967377, 0.7360000349581242, 0.0, 0.0, 0.0, 0.0, 0.0, 1.6511848941250715E9, 0.0, 2022-04-28 15:28:14.125
31.0, 9.417068088427186, 5019.319730531424, 2442.9456599061377, -2826.057271467056, -0.0800000037997961, 0.1600000075995922, 0.7360000349581242, 0.0, 0.0, 0.0, 0.0, 0.0, 1.651184894138548E9, 0.0, 2022-04-28 15:28:14.138
31.0, 53.06544047128409, 4794.9780917894095, 2442.279957714025, -2635.1578181288205, -0.0800000037997961, 0.1600000075995922, 0.7360000349581242, 0.0, 0.0, 0.0, 0.0, 0.0, 1.651184894138548E9, 0.0, 2022-04-28 15:28:14.138
32.0, 3.425748359411955, 4862.7712582862005, 2525.4927317281254, -2599.1930702049285, -0.09600000455975533, 0.1600000075995922, 0.7360000349581242, 0.0, 0.0, 0.0, 0.0, 0.0, 1.6511848941542697E9, 0.0, 2022-04-28 15:28:14.154
32.0, -73.22724113240838, 4979.826386999339, 2547.2140706707723, -2482.431523638312, -0.09600000455975533, 0.1600000075995922, 0.7360000349581242, 0.0, 0.0, 0.0, 0.0, 0.0, 1.6511848941542697E9, 0.0, 2022-04-28 15:28:14.154
33.0, 79.56637155730277, 4761.782739782706, 2697.5561789395288, -2698.64822972659, -0.09600000455975533, 0.1600000075995922, 0.7360000349581242, 0.0, 0.0, 0.0, 0.0, 0.0, 1.6511848941550283E9, 0.0, 2022-04-28 15:28:14.155
33.0, 23.77080411836505, 4855.549511471763, 2519.6884069968946, -2914.2048434726894, -0.09600000455975533, 0.1600000075995922, 0.7360000349581242, 0.0, 0.0, 0.0, 0.0, 0.0, 1.6511848941550283E9, 0.0, 2022-04-28 15:28:14.155
34.0, -93.17960739601403, 4988.383278097957, 2411.401473729871, -3010.2566940346733, -0.09600000455975533, 0.1600000075995922, 0.7360000349581242, 0.0, 0.0, 0.0, 0.0, 0.0, 1.6511848941685915E9, 0.0, 2022-04-28 15:28:14.168
34.0, 65.1041784286499, 4896.808087782934, 2386.5273991245776, -2913.9168711761013, -0.09600000455975533, 0.1600000075995922, 0.7360000349581242, 0.0, 0.0, 0.0, 0.0, 0.0, 1.6511848941685915E9, 0.0, 2022-04-28 15:28:14.168
35.0, 32.424932615831494, 4760.251250750851, 2456.1400269498117, -2800.986852114089, -0.09600000455975533, 0.1600000075995922, 0.7360000349581242, 0.0, 0.0, 0.0, 0.0, 0.0, 1.6511848941842995E9, 0.0, 2022-04-28 15:28:14.184
35.0, -59.756121492013335, 4939.444817227777, 2690.2652439759113, -2600.9751325338148, -0.09600000455975533, 0.1600000075995922, 0.7360000349581242, 0.0, 0.0, 0.0, 0.0, 0.0, 1.6511848941842995E9, 0.0, 2022-04-28 15:28:14.184
36.0, 10.389442076906562, 4957.626340862364, 2872.000072472729, -2768.977048393339, -0.09600000455975533, 0.1600000075995922, 0.7360000349581242, 0.0, 0.0, 0.0, 0.0, 0.0, 1.6511848941850636E9, 0.0, 2022-04-28 15:28:14.185
36.0, 59.22505569830537, 4889.605040468276, 2905.9153552209027, -2613.6515234336257, -0.09600000455975533, 0.1600000075995922, 0.7360000349581242, 0.0, 0.0, 0.0, 0.0, 0.0, 1.6511848941850636E9, 0.0, 2022-04-28 15:28:14.185
37.0, -2.0008464762941003, 4861.116352555808, 3066.3944623195566, -2658.743497199379, -0.09600000455975533, 0.1600000075995922, 0.7360000349581242, 0.0, 0.0, 0.0, 0.0, 0.0, 1.6511848941985989E9, 0.0, 2022-04-28 15:28:14.198
37.0, -78.17512877378613, 4832.021800850518, 3113.270368364174, -2555.142658576835, -0.09600000455975533, 0.1600000075995922, 0.7360000349581242, 0.0, 0.0, 0.0, 0.0, 0.0, 1.6511848941985989E9, 0.0, 2022-04-28 15:28:14.198
38.0, 85.557691286318, 4820.151358391158, 3113.799564207904, -2615.0988647164777, -0.09600000455975533, 0.1600000075995922, 0.7360000349581242, 0.0, 0.0, 0.0, 0.0, 0.0, 1.6511848942149897E9, 0.0, 2022-04-28 15:28:14.214
38.0, 25.35278179962188, 4843.200361818075, 3017.0427425042726, -2420.629676870536, -0.09600000455975533, 0.1600000075995922, 0.7360000349581242, 0.0, 0.0, 0.0, 0.0, 0.0, 1.6511848942149897E9, 0.0, 2022-04-28 15:28:14.214
39.0, -92.71585980150849, 4937.685194298625, 3012.597871406935, -2612.9914310914464, -0.09600000455975533, 0.1600000075995922, 0.7360000349581242, 0.0, 0.0, 0.0, 0.0, 0.0, 1.6511848942156992E9, 0.0, 2022-04-28 15:28:14.215
39.0, 71.52558665256947, 4924.490827254951, 2774.571938727051, -2823.2093376507983, -0.09600000455975533, 0.1600000075995922, 0.7360000349581242, 0.0, 0.0, 0.0, 0.0, 0.0, 1.6511848942156992E9, 0.0, 2022-04-28 15:28:14.215
40.0, 37.4625778561458, 4804.707441524137, 2947.858333223965, -2805.1605804646388, -0.09600000455975533, 0.1600000075995922, 0.8480000402778387, 0.0, 0.0, 0.0, 0.0, 0.0, 1.6511848942286088E9, 0.0, 2022-04-28 15:28:14.228
40.0, -54.45294335484505, 4996.265117254574, 2753.946390471421, -2677.4299073279835, -0.09600000455975533, 0.1600000075995922, 0.8480000402778387, 0.0, 0.0, 0.0, 0.0, 0.0, 1.6511848942286088E9, 0.0, 2022-04-28 15:28:14.228
41.0, 12.285571354441345, 4919.391473665368, 2798.5690067927353, -2702.1562558850273, -0.09600000455975533, 0.1600000075995922, 0.8480000402778387, 0.0, 0.0, 0.0, 0.0, 0.0, 1.6511848942442424E9, 0.0, 2022-04-28 15:28:14.244
41.0, 56.4350903313607, 4993.996867931448, 2879.9735391782597, -2589.020542325452, -0.09600000455975533, 0.1600000075995922, 0.8480000402778387, 0.0, 0.0, 0.0, 0.0, 0.0, 1.6511848942442424E9, 0.0, 2022-04-28 15:28:14.244
42.0, -3.6090034572407603, 4965.425902219955, 3071.987482703291, -2682.7349554151297, -0.09600000455975533, 0.1600000075995922, 0.8480000402778387, 0.0, 0.0, 0.0, 0.0, 0.0, 1.6511848942450078E9, 0.0, 2022-04-28 15:28:14.245
42.0, -76.76892639044672, 4806.377306854352, 3068.1073364992626, -2511.5877836928703, -0.09600000455975533, 0.1600000075995922, 0.8480000402778387, 0.0, 0.0, 0.0, 0.0, 0.0, 1.6511848942450078E9, 0.0, 2022-04-28 15:28:14.245
43.0, 82.28901872504503, 4883.499653790612, 3049.0525462250225, -2559.497772075236, -0.09600000455975533, 0.1600000075995922, 0.8480000402778387, 0.0, 0.0, 0.0, 0.0, 0.0, 1.6511848942749743E9, 0.0, 2022-04-28 15:28:14.274
43.0, 25.210665601305664, 4916.249957702588, 2994.7548087183386, -2414.7355945403688, -0.09600000455975533, 0.1600000075995922, 0.8480000402778387, 0.0, 0.0, 0.0, 0.0, 0.0, 1.6511848942749743E9, 0.0, 2022-04-28 15:28:14.274
44.0, -91.19746041949838, 4990.453312723432, 3033.6609879573807, -2628.990723101888, -0.09600000455975533, 0.1600000075995922, 0.8480000402778387, 0.0, 0.0, 0.0, 0.0, 0.0, 1.6511848942757585E9, 0.0, 2022-04-28 15:28:14.275
44.0, 70.2577605675906, 4937.503809150774, 3208.622857634444, -2731.839841833338, -0.09600000455975533, 0.1600000075995922, 0.8480000402778387, 0.0, 0.0, 0.0, 0.0, 0.0, 1.6511848942757585E9, 0.0, 2022-04-28 15:28:14.275
45.0, 33.225271206349134, 4883.8530743364245, 3416.6080439202487, -2773.463058390189, -0.09600000455975533, 0.1600000075995922, 0.8480000402778387, 0.0, 0.0, 0.0, 0.0, 0.0, 1.6511848942764037E9, 0.0, 2022-04-28 15:28:14.276
45.0, -55.15604454651475, 5059.317960557528, 3279.7856739913113, -2704.6732085552067, -0.09600000455975533, 0.1600000075995922, 0.8480000402778387, 0.0, 0.0, 0.0, 0.0, 0.0, 1.6511848942764037E9, 0.0, 2022-04-28 15:28:14.276
46.0, 16.597676003351808, 4836.745294494554, 3240.602742155548, -2620.6039974512532, -0.09600000455975533, 0.1600000075995922, 0.8480000402778387, 0.0, 0.0, 0.0, 0.0, 0.0, 1.6511848942885695E9, 0.0, 2022-04-28 15:28:14.288
46.0, 52.893405073322356, 5049.876583119389, 3364.5074976375327, -2576.5105769736692, -0.09600000455975533, 0.1600000075995922, 0.8480000402778387, 0.0, 0.0, 0.0, 0.0, 0.0, 1.6511848942885695E9, 0.0, 2022-04-28 15:28:14.288
47.0, -1.2678260849788785, 5031.84465548303, 3607.97124485299, -2708.936694504693, -0.09600000455975533, 0.1600000075995922, 0.8480000402778387, 0.0, 0.0, 0.0, 0.0, 0.0, 1.651184894304918E9, 0.0, 2022-04-28 15:28:14.304
47.0, -76.6268101921305, 5205.237637128681, 3544.96702024946, -2493.595125006046, -0.09600000455975533, 0.1600000075995922, 0.8480000402778387, 0.0, 0.0, 0.0, 0.0, 0.0, 1.651184894304918E9, 0.0, 2022-04-28 15:28:14.304
48.0, 88.32521725352854, 5404.5799146168865, 3504.2806486315094, -2530.5958252176642, -0.09600000455975533, 0.1600000075995922, 0.8480000402778387, 0.0, 0.0, 0.0, 0.0, 0.0, 1.651184894305647E9, 0.0, 2022-04-28 15:28:14.305
48.0, 20.345055758953094, 5433.4295028750785, 3498.3061584522948, -2434.886175501626, -0.09600000455975533, 0.1600000075995922, 0.8480000402778387, 0.0, 0.0, 0.0, 0.0, 0.0, 1.651184894305647E9, 0.0, 2022-04-28 15:28:14.305
49.0, -93.34416299406439, 5451.504439360928, 3585.8422568151727, -2202.9170107999817, -0.09600000455975533, 0.1600000075995922, 0.8480000402778387, 0.0, 0.0, 0.0, 0.0, 0.0, 1.6511848943185565E9, 0.0, 2022-04-28 15:28:14.318
49.0, 70.45223536528647, 5381.328956592362, 3640.424226718489, -2202.5093617048115, -0.09600000455975533, 0.1600000075995922, 0.8480000402778387, 0.0, 0.0, 0.0, 0.0, 0.0, 1.6511848943185565E9, 0.0, 2022-04-28 15:28:14.318
50.0, 31.04116963222623, 5350.951619202271, 3444.864858035464, -2319.356925970409, -0.09600000455975533, 0.1600000075995922, 0.9120000433176756, 0.0, 0.0, 0.0, 0.0, 0.0, 1.651184894334263E9, 0.0, 2022-04-28 15:28:14.334
50.0, -53.91065786127001, 5528.323854400776, 3345.531245262362, -2284.596425832249, -0.09600000455975533, 0.1600000075995922, 0.9120000433176756, 0.0, 0.0, 0.0, 0.0, 0.0, 1.651184894334263E9, 0.0, 2022-04-28 15:28:14.334
51.0, 14.772604824975133, 5714.494204245042, 3186.30874454882, -2086.4490463798866, -0.09600000455975533, 0.17600000835955143, 0.9120000433176756, 0.0, 0.0, 0.0, 0.0, 0.0, 1.6511848943350337E9, 0.0, 2022-04-28 15:28:14.335
51.0, 58.611712105572224, 5543.902407666203, 3377.5803179326467, -2105.124236808624, -0.09600000455975533, 0.17600000835955143, 0.9120000433176756, 0.0, 0.0, 0.0, 0.0, 0.0, 1.6511848943350337E9, 0.0, 2022-04-28 15:28:14.335
52.0, 1.2528664851561189, 5511.198852503672, 3169.505374047905, -2284.8563488791697, -0.09600000455975533, 0.17600000835955143, 0.9120000433176756, 0.0, 0.0, 0.0, 0.0, 0.0, 1.651184894348519E9, 0.0, 2022-04-28 15:28:14.348
52.0, -73.60497102793306, 5600.27952954825, 3091.257317224983, -2498.2849595504813, -0.09600000455975533, 0.17600000835955143, 0.9120000433176756, 0.0, 0.0, 0.0, 0.0, 0.0, 1.651184894348519E9, 0.0, 2022-04-28 15:28:14.348
53.0, 83.57554430980235, 5461.106632497162, 2999.270737914834, -2493.1313774115406, -0.09600000455975533, 0.17600000835955143, 0.9120000433176756, 0.0, 0.0, 0.0, 0.0, 0.0, 1.6511848943649352E9, 0.0, 2022-04-28 15:28:14.364
53.0, 25.68937279563397, 5420.897098123562, 3021.7624962483533, -2440.0416275905445, -0.09600000455975533, 0.17600000835955143, 0.9120000433176756, 0.0, 0.0, 0.0, 0.0, 0.0, 1.6511848943649352E9, 0.0, 2022-04-28 15:28:14.364
54.0, -91.4854327160865, 5409.9597607031465, 3156.518571451772, -2261.6764489538036, -0.09600000455975533, 0.17600000835955143, 0.9120000433176756, 0.0, 0.0, 0.0, 0.0, 0.0, 1.6511848943650565E9, 0.0, 2022-04-28 15:28:14.365
54.0, 74.17343582119793, 5384.977228999138, 3096.1603260668926, -2142.886006661225, -0.09600000455975533, 0.17600000835955143, 0.9120000433176756, 0.0, 0.0, 0.0, 0.0, 0.0, 1.6511848943650565E9, 0.0, 2022-04-28 15:28:14.365
55.0, 35.29717578180134, 5391.581892320886, 2968.906490174588, -2331.7490844735876, -0.09600000455975533, 0.17600000835955143, 0.9120000433176756, 0.0, 0.0, 0.0, 0.0, 0.0, 1.651184894378636E9, 0.0, 2022-04-28 15:28:14.378
55.0, -55.84418613836169, 5565.879929755814, 2914.8181870654225, -2351.585513838567, -0.09600000455975533, 0.17600000835955143, 0.9120000433176756, 0.0, 0.0, 0.0, 0.0, 0.0, 1.651184894378636E9, 0.0, 2022-04-28 15:28:14.378
56.0, 17.76452478952706, 5660.415250885766, 3125.4474826199003, -2500.727114221547, -0.09600000455975533, 0.17600000835955143, 0.9120000433176756, 0.0, 0.0, 0.0, 0.0, 0.0, 1.6511848943942404E9, 0.0, 2022-04-28 15:28:14.394
56.0, 56.68192372843623, 5625.125554903876, 2901.449914673809, -2605.420003631152, -0.09600000455975533, 0.17600000835955143, 0.9120000433176756, 0.0, 0.0, 0.0, 0.0, 0.0, 1.6511848943942404E9, 0.0, 2022-04-28 15:28:14.394
57.0, 3.62396305706352, 5581.965239465237, 2720.84453596361, -2811.877440785058, -0.09600000455975533, 0.17600000835955143, 0.9120000433176756, 0.0, 0.0, 0.0, 0.0, 0.0, 1.6511848943950348E9, 0.0, 2022-04-28 15:28:14.395
57.0, -73.19358203280717, 5505.542253820691, 2559.088253030088, -2967.6592335393652, -0.09600000455975533, 0.17600000835955143, 0.9120000433176756, 0.0, 0.0, 0.0, 0.0, 0.0, 1.6511848943950348E9, 0.0, 2022-04-28 15:28:14.395
58.0, 84.35718340054154, 5470.349795237649, 2504.2762792794965, -2992.5837967940606, -0.09600000455975533, 0.17600000835955143, 0.9120000433176756, 0.0, 0.0, 0.0, 0.0, 0.0, 1.6511848944085407E9, 0.0, 2022-04-28 15:28:14.408
58.0, 29.41057325154543, 5428.696659481153, 2556.043974466156, -2965.8416421609, -0.09600000455975533, 0.17600000835955143, 0.9120000433176756, 0.0, 0.0, 0.0, 0.0, 0.0, 1.6511848944085407E9, 0.0, 2022-04-28 15:28:14.408
59.0, -86.95267396979034, 5398.951365183573, 2690.2390646762215, -2772.8197955978103, -0.09600000455975533, 0.17600000835955143, 0.9120000433176756, 0.0, 0.0, 0.0, 0.0, 0.0, 1.6511848944242673E9, 0.0, 2022-04-28 15:28:14.424
59.0, 72.6625162390992, 5378.381915427279, 2584.871123324614, -2607.893947451841, -0.09600000455975533, 0.17600000835955143, 0.9120000433176756, 0.0, 0.0, 0.0, 0.0, 0.0, 1.6511848944242673E9, 0.0, 2022-04-28 15:28:14.424
60.0, 34.91944588627666, 5381.837582986336, 2502.8551172963344, -2838.2923541720957, -0.09600000455975533, 0.17600000835955143, 0.944000044837594, 0.0, 0.0, 0.0, 0.0, 0.0, 1.6511848944250143E9, 0.0, 2022-04-28 15:28:14.425
60.0, -51.59939968865365, 5599.039752712939, 2467.1671219691634, -2877.4939855076373, -0.09600000455975533, 0.17600000835955143, 0.944000044837594, 0.0, 0.0, 0.0, 0.0, 0.0, 1.6511848944250143E9, 0.0, 2022-04-28 15:28:14.425
61.0, 20.318876459263265, 5597.768186728004, 2587.848083689343, -2933.553215893451, -0.09600000455975533, 0.17600000835955143, 0.944000044837594, 0.0, 0.0, 0.0, 0.0, 0.0, 1.6511848944385872E9, 0.0, 2022-04-28 15:28:14.438
61.0, 54.31456705648452, 5685.811041534878, 2420.4314621728845, -3119.9479597350582, -0.09600000455975533, 0.17600000835955143, 0.944000044837594, 0.0, 0.0, 0.0, 0.0, 0.0, 1.6511848944385872E9, 0.0, 2022-04-28 15:28:14.438
62.0, 3.9306348534300923, 5627.77714397246, 2258.884613636881, -3346.447520751506, -0.11200000531971455, 0.17600000835955143, 0.944000044837594, 0.0, 0.0, 0.0, 0.0, 0.0, 1.6511848944542396E9, 0.0, 2022-04-28 15:28:14.454
62.0, -67.33689870219678, 5437.3246086789295, 2046.9239136981778, -3418.605150496587, -0.11200000531971455, 0.17600000835955143, 0.944000044837594, 0.0, 0.0, 0.0, 0.0, 0.0, 1.6511848944542396E9, 0.0, 2022-04-28 15:28:14.454
63.0, 84.79475169535726, 5542.597182581667, 1989.2658760813065, -3445.945689122658, -0.11200000531971455, 0.17600000835955143, 0.944000044837594, 0.0, 0.0, 0.0, 0.0, 0.0, 1.6511848944550257E9, 0.0, 2022-04-28 15:28:14.455
63.0, 24.1597537137568, 5425.2522116219625, 2059.8789271446876, -3431.1562547478825, -0.11200000531971455, 0.17600000835955143, 0.944000044837594, 0.0, 0.0, 0.0, 0.0, 0.0, 1.6511848944550257E9, 0.0, 2022-04-28 15:28:14.455
64.0, -93.03001139778644, 5373.830457181204, 2236.005775657948, -3275.735362339299, -0.11200000531971455, 0.17600000835955143, 0.944000044837594, 0.0, 0.0, 0.0, 0.0, 0.0, 1.6511848944685807E9, 0.0, 2022-04-28 15:28:14.468
64.0, 70.56443236395717, 5378.641838474199, 2025.284852554556, -3515.22172595188, -0.11200000531971455, 0.17600000835955143, 0.944000044837594, 0.0, 0.0, 0.0, 0.0, 0.0, 1.6511848944685807E9, 0.0, 2022-04-28 15:28:14.468
65.0, 35.248557082377374, 5439.246917256154, 2010.545906829182, -3345.9089751578867, -0.11200000531971455, 0.17600000835955143, 0.944000044837594, 0.0, 0.0, 0.0, 0.0, 0.0, 1.651184894484233E9, 0.0, 2022-04-28 15:28:14.484
65.0, -55.50385524239391, 5608.559668050148, 2017.4310626476072, -3421.2193405656144, -0.11200000531971455, 0.17600000835955143, 0.944000044837594, 0.0, 0.0, 0.0, 0.0, 0.0, 1.651184894484233E9, 0.0, 2022-04-28 15:28:14.484
66.0, 20.53579065669328, 5528.391172599979, 2033.3200276093557, -3364.155947041698, -0.11200000531971455, 0.17600000835955143, 0.944000044837594, 0.0, 0.0, 0.0, 0.0, 0.0, 1.651184894485012E9, 0.0, 2022-04-28 15:28:14.485
66.0, 52.32868018001318, 5752.454188795295, 1948.3457607161254, -3133.677132472396, -0.11200000531971455, 0.17600000835955143, 0.944000044837594, 0.0, 0.0, 0.0, 0.0, 0.0, 1.651184894485012E9, 0.0, 2022-04-28 15:28:14.485
67.0, 4.072751051746309, 5661.5914494218305, 1808.8979810182936, -3367.301202904433, -0.11200000531971455, 0.17600000835955143, 0.944000044837594, 0.0, 0.0, 0.0, 0.0, 0.0, 1.6511848944985857E9, 0.0, 2022-04-28 15:28:14.498
67.0, -72.86447083670646, 5794.126024051569, 2044.8183500231244, -3410.6877822903916, -0.11200000531971455, 0.17600000835955143, 0.944000044837594, 0.0, 0.0, 0.0, 0.0, 0.0, 1.6511848944985857E9, 0.0, 2022-04-28 15:28:14.498
68.0, 85.24727958999574, 5585.903354118578, 1965.6035290616564, -3420.8173013203777, -0.11200000531971455, 0.17600000835955143, 0.944000044837594, 0.0, 0.0, 0.0, 0.0, 0.0, 1.6511848945142407E9, 0.0, 2022-04-28 15:28:14.514
68.0, 24.96757210418582, 5459.148794870358, 2076.6448986460455, -3480.8838345087133, -0.11200000531971455, 0.17600000835955143, 0.944000044837594, 0.0, 0.0, 0.0, 0.0, 0.0, 1.6511848945142407E9, 0.0, 2022-04-28 15:28:14.514
69.0, -93.03001139778644, 5324.099137520418, 2265.6594424066134, -3328.2678670668975, -0.11200000531971455, 0.17600000835955143, 0.944000044837594, 0.0, 0.0, 0.0, 0.0, 0.0, 1.6511848945150292E9, 0.0, 2022-04-28 15:28:14.515
69.0, 77.83105797786266, 5359.390703452285, 2459.1674759639427, -3462.700440924149, -0.11200000531971455, 0.17600000835955143, 0.944000044837594, 0.0, 0.0, 0.0, 0.0, 0.0, 1.6511848945150292E9, 0.0, 2022-04-28 15:28:14.515
70.0, 32.51843011472374, 5439.5442393026315, 2514.8040976547636, -3353.0016954238527, -0.11200000531971455, 0.17600000835955143, 0.944000044837594, 0.0, 0.0, 0.0, 0.0, 0.0, 1.6511848945285993E9, 0.0, 2022-04-28 15:28:14.528
70.0, -54.76335505116731, 5612.21916015679, 2569.904043701943, -3479.18591992883, -0.11200000531971455, 0.17600000835955143, 0.944000044837594, 0.0, 0.0, 0.0, 0.0, 0.0, 1.6511848945285993E9, 0.0, 2022-04-28 15:28:14.528
71.0, 23.437953022308648, 5436.544839538168, 2477.0946864015423, -3287.531006799545, -0.11200000531971455, 0.17600000835955143, 0.944000044837594, 0.0, 0.0, 0.0, 0.0, 0.0, 1.6511848945442328E9, 0.0, 2022-04-28 15:28:14.544
71.0, 59.9543361896649, 5308.913273750339, 2438.734532556031, -3131.334085150156, -0.11200000531971455, 0.17600000835955143, 0.944000044837594, 0.0, 0.0, 0.0, 0.0, 0.0, 1.6511848945442328E9, 0.0, 2022-04-28 15:28:14.544
72.0, -0.5572450933977962, 5176.582523668185, 2350.4411044521257, -2949.5655975537375, -0.11200000531971455, 0.17600000835955143, 0.944000044837594, 0.0, 0.0, 0.0, 0.0, 0.0, 1.6511848945450027E9, 0.0, 2022-04-28 15:28:14.545
72.0, -68.78050008509308, 5163.749056970235, 2529.612231529318, -2909.999325972516, -0.11200000531971455, 0.17600000835955143, 0.944000044837594, 0.0, 0.0, 0.0, 0.0, 0.0, 1.6511848945450027E9, 0.0, 2022-04-28 15:28:14.545
73.0, 79.60003065690398, 5158.62539403094, 2414.7412043903023, -2907.87880269764, -0.11200000531971455, 0.17600000835955143, 0.944000044837594, 0.0, 0.0, 0.0, 0.0, 0.0, 1.6511848945586276E9, 0.0, 2022-04-28 15:28:14.558
73.0, 21.72881874255836, 4972.997329680249, 2583.7285838881508, -2991.9854128011502, -0.11200000531971455, 0.17600000835955143, 0.944000044837594, 0.0, 0.0, 0.0, 0.0, 0.0, 1.6511848945586276E9, 0.0, 2022-04-28 15:28:14.558
74.0, -91.27973821852356, 4788.337899418082, 2813.321042167954, -2893.8672675136477, -0.11200000531971455, 0.17600000835955143, 0.944000044837594, 0.0, 0.0, 0.0, 0.0, 0.0, 1.6511848945742662E9, 0.0, 2022-04-28 15:28:14.574
74.0, 76.64924959186465, 4883.355667642318, 2895.563312143553, -2915.33242330933, -0.11200000531971455, 0.17600000835955143, 0.944000044837594, 0.0, 0.0, 0.0, 0.0, 0.0, 1.6511848945742662E9, 0.0, 2022-04-28 15:28:14.574
75.0, 34.99050398543477, 4983.798160752282, 3013.4169094972312, -2872.61528601544, -0.11200000531971455, 0.17600000835955143, 0.944000044837594, 0.0, 0.0, 0.0, 0.0, 0.0, 1.6511848945750215E9, 0.0, 2022-04-28 15:28:14.575
75.0, -56.543547430075705, 5114.223431807011, 3123.9945314871147, -3043.764327687677, -0.11200000531971455, 0.17600000835955143, 0.944000044837594, 0.0, 0.0, 0.0, 0.0, 0.0, 1.6511848945750215E9, 0.0, 2022-04-28 15:28:14.575
76.0, 21.130434749647975, 4889.578861168586, 3368.073492245283, -3229.5756471361965, -0.11200000531971455, 0.17600000835955143, 0.944000044837594, 0.0, 0.0, 0.0, 0.0, 0.0, 1.6511848945885732E9, 0.0, 2022-04-28 15:28:14.588
76.0, 54.71099645178765, 4869.181446810253, 3416.230314024724, -3125.9056203644723, -0.11200000531971455, 0.17600000835955143, 0.944000044837594, 0.0, 0.0, 0.0, 0.0, 0.0, 1.6511848945885732E9, 0.0, 2022-04-28 15:28:14.588
77.0, 1.8774297777563334, 4740.740192682017, 3334.9379786378704, -2954.3321000472642, -0.11200000531971455, 0.17600000835955143, 0.944000044837594, 0.0, 0.0, 0.0, 0.0, 0.0, 1.6511848946042507E9, 0.0, 2022-04-28 15:28:14.604
77.0, -69.4050633776933, 4594.657830462791, 3493.719171156641, -2870.0740239955485, -0.11200000531971455, 0.17600000835955143, 0.944000044837594, 0.0, 0.0, 0.0, 0.0, 0.0, 1.6511848946042507E9, 0.0, 2022-04-28 15:28:14.604
78.0, 85.9653403814882, 4746.787610910367, 3366.4503756645136, -2858.7346473298967, -0.11200000531971455, 0.17600000835955143, 0.944000044837594, 0.0, 0.0, 0.0, 0.0, 0.0, 1.6511848946050384E9, 0.0, 2022-04-28 15:28:14.605
78.0, 22.461839133873582, 4517.253121079877, 3572.9863507174887, -2999.7513150591403, -0.11200000531971455, 0.17600000835955143, 0.944000044837594, 0.0, 0.0, 0.0, 0.0, 0.0, 1.6511848946050384E9, 0.0, 2022-04-28 15:28:14.605
79.0, -90.24004603084177, 4274.254991408903, 3337.441841658205, -2935.93179226527, -0.11200000531971455, 0.17600000835955143, 0.944000044837594, 0.0, 0.0, 0.0, 0.0, 0.0, 1.6511848946185532E9, 0.0, 2022-04-28 15:28:14.618
79.0, 78.19008837360889, 4414.304894999601, 3303.2890752628446, -2836.4392337440513, -0.11200000531971455, 0.17600000835955143, 0.944000044837594, 0.0, 0.0, 0.0, 0.0, 0.0, 1.6511848946185532E9, 0.0, 2022-04-28 15:28:14.618
80.0, 32.436152315698564, 4487.850027628243, 3518.5483669624664, -2875.8484295271337, -0.11200000531971455, 0.17600000835955143, 0.9600000455975533, 0.0, 0.0, 0.0, 0.0, 0.0, 1.6511848946342642E9, 0.0, 2022-04-28 15:28:14.634
80.0, -61.57745277043432, 4643.358807685785, 3668.8212870820425, -3096.809198709205, -0.11200000531971455, 0.17600000835955143, 0.9600000455975533, 0.0, 0.0, 0.0, 0.0, 0.0, 1.6511848946342642E9, 0.0, 2022-04-28 15:28:14.634
81.0, 17.24841859564185, 4819.610942847561, 3811.1113907461986, -3155.362942365464, -0.11200000531971455, 0.17600000835955143, 0.9600000455975533, 0.0, 0.0, 0.0, 0.0, 0.0, 1.6511848946350152E9, 0.0, 2022-04-28 15:28:14.635
81.0, 53.23747586924583, 4918.428449426778, 3888.1103209839202, -3129.4977942719124, -0.11200000531971455, 0.17600000835955143, 0.9600000455975533, 0.0, 0.0, 0.0, 0.0, 0.0, 1.6511848946350152E9, 0.0, 2022-04-28 15:28:14.635
82.0, 0.11219699867069721, 4781.25078900205, 3874.6261116936803, -3010.2417344348505, -0.11200000531971455, 0.17600000835955143, 0.9600000455975533, 0.0, 0.0, 0.0, 0.0, 0.0, 1.651184894648661E9, 0.0, 2022-04-28 15:28:14.648
82.0, -70.94216225948185, 4544.423494257964, 3950.6919368924573, -2857.5771482936107, -0.11200000531971455, 0.17600000835955143, 0.9600000455975533, 0.0, 0.0, 0.0, 0.0, 0.0, 1.651184894648661E9, 0.0, 2022-04-28 15:28:14.648
83.0, 84.58531729783863, 4311.521224517375, 3819.993653140962, -2847.718772010412, -0.11200000531971455, 0.17600000835955143, 0.9600000455975533, 0.0, 0.0, 0.0, 0.0, 0.0, 1.6511848946642797E9, 0.0, 2022-04-28 15:28:14.664
83.0, 25.962385492399335, 4527.156376162544, 3589.423211022746, -2997.307290438097, -0.11200000531971455, 0.17600000835955143, 0.9600000455975533, 0.0, 0.0, 0.0, 0.0, 0.0, 1.6511848946642797E9, 0.0, 2022-04-28 15:28:14.664
84.0, -88.65432844962925, 4736.21678368561, 3396.984788852744, -2981.15653247945, -0.11200000531971455, 0.17600000835955143, 0.9600000455975533, 0.0, 0.0, 0.0, 0.0, 0.0, 1.6511848946650743E9, 0.0, 2022-04-28 15:28:14.665
84.0, 75.46370130591094, 4953.989288155455, 3245.9564089421183, -2769.9830814814195, -0.11200000531971455, 0.17600000835955143, 0.9600000455975533, 0.0, 0.0, 0.0, 0.0, 0.0, 1.6511848946650743E9, 0.0, 2022-04-28 15:28:14.665
85.0, 30.700838736258447, 5023.461669732351, 3027.7182869277894, -2885.637617661152, -0.11200000531971455, 0.17600000835955143, 0.9600000455975533, 0.0, 0.0, 0.0, 0.0, 0.0, 1.6511848946785436E9, 0.0, 2022-04-28 15:28:14.678
85.0, -56.939976825378835, 5139.499545657542, 3237.1227652467787, -2663.395932744257, -0.11200000531971455, 0.17600000835955143, 0.9600000455975533, 0.0, 0.0, 0.0, 0.0, 0.0, 1.6511848946785436E9, 0.0, 2022-04-28 15:28:14.678
86.0, 22.07288953848183, 5271.815336139873, 3260.6673054178245, -2597.8803653204814, -0.11200000531971455, 0.17600000835955143, 0.9600000455975533, 0.0, 0.0, 0.0, 0.0, 0.0, 1.6511848946942692E9, 0.0, 2022-04-28 15:28:14.694
86.0, 58.578053005971014, 5460.857929150108, 3419.098817290738, -2657.6720158620737, -0.11200000531971455, 0.17600000835955143, 0.9600000455975533, 0.0, 0.0, 0.0, 0.0, 0.0, 1.6511848946942692E9, 0.0, 2022-04-28 15:28:14.694
87.0, -2.976960364729166, 5279.369934050366, 3426.9563470976427, -2558.1925469907, -0.11200000531971455, 0.17600000835955143, 0.9600000455975533, 0.0, 0.0, 0.0, 0.0, 0.0, 1.651184894695006E9, 0.0, 2022-04-28 15:28:14.695
87.0, -65.48564822413027, 5450.79946821928, 3460.6453658984974, -2355.046791247558, -0.11200000531971455, 0.17600000835955143, 0.9600000455975533, 0.0, 0.0, 0.0, 0.0, 0.0, 1.651184894695006E9, 0.0, 2022-04-28 15:28:14.695
88.0, 85.24353969004005, 5353.2740970747545, 3285.2964165760204, -2310.5868605743162, -0.11200000531971455, 0.17600000835955143, 0.9600000455975533, 0.0, 0.0, 0.0, 0.0, 0.0, 1.6511848947085912E9, 0.0, 2022-04-28 15:28:14.708
88.0, 24.743178106844425, 5525.79568203073, 3110.955370291602, -2522.351215765346, -0.11200000531971455, 0.17600000835955143, 0.9600000455975533, 0.0, 0.0, 0.0, 0.0, 0.0, 1.6511848947085912E9, 0.0, 2022-04-28 15:28:14.708
89.0, -92.16235460806638, 5645.797851908952, 2947.979879972525, -2534.9845978156663, -0.11200000531971455, 0.17600000835955143, 0.9600000455975533, 0.0, 0.0, 0.0, 0.0, 0.0, 1.6511848947249327E9, 0.0, 2022-04-28 15:28:14.724
89.0, 74.78303951397538, 5443.143893009983, 3163.115754973609, -2683.127644910477, -0.11200000531971455, 0.17600000835955143, 0.9600000455975533, 0.0, 0.0, 0.0, 0.0, 0.0, 1.6511848947249327E9, 0.0, 2022-04-28 15:28:14.724
90.0, 31.972404721193016, 5526.2594296252355, 3021.055655156728, -2882.877571493853, -0.11200000531971455, 0.17600000835955143, 0.9600000455975533, 0.0, 0.0, 0.0, 0.0, 0.0, 1.651184894725739E9, 0.0, 2022-04-28 15:28:14.725
90.0, -61.824286167509854, 5644.5973440231755, 2780.323904858902, -2712.6466752607375, -0.11200000531971455, 0.17600000835955143, 0.9600000455975533, 0.0, 0.0, 0.0, 0.0, 0.0, 1.651184894725739E9, 0.0, 2022-04-28 15:28:14.725
91.0, 22.824609429575503, 5808.051541536581, 2659.2409038934857, -2508.504236179404, -0.11200000531971455, 0.19200000911951065, 0.9600000455975533, 0.0, 0.0, 0.0, 0.0, 0.0, 1.6511848947385864E9, 0.0, 2022-04-28 15:28:14.738
91.0, 51.20671019330621, 5564.999183316249, 2896.756340229418, -2617.3932933392935, -0.11200000531971455, 0.19200000911951065, 0.9600000455975533, 0.0, 0.0, 0.0, 0.0, 0.0, 1.6511848947385864E9, 0.0, 2022-04-28 15:28:14.738
92.0, -6.204494026489556, 5376.293181302026, 2951.4710765811615, -2585.3591802688316, -0.11200000531971455, 0.19200000911951065, 0.9600000455975533, 0.0, 0.0, 0.0, 0.0, 0.0, 1.6511848947542465E9, 0.0, 2022-04-28 15:28:14.754
92.0, -64.43099643662572, 5398.175335942768, 2928.887690698728, -2825.33360082563, -0.11200000531971455, 0.19200000911951065, 0.9600000455975533, 0.0, 0.0, 0.0, 0.0, 0.0, 1.6511848947542465E9, 0.0, 2022-04-28 15:28:14.754
93.0, 87.72683326061815, 5520.045585848857, 2725.2837972110137, -2723.9486529268324, -0.11200000531971455, 0.19200000911951065, 0.9600000455975533, 0.0, 0.0, 0.0, 0.0, 0.0, 1.6511848947550645E9, 0.0, 2022-04-28 15:28:14.755
93.0, 23.890480916947126, 5694.066870687064, 2564.2044361694716, -2937.691415194422, -0.11200000531971455, 0.19200000911951065, 0.9600000455975533, 0.0, 0.0, 0.0, 0.0, 0.0, 1.6511848947550645E9, 0.0, 2022-04-28 15:28:14.755
94.0, -91.77340501267463, 5699.212973026093, 2450.434809567407, -3025.818417750299, -0.11200000531971455, 0.19200000911951065, 0.9600000455975533, 0.0, 0.0, 0.0, 0.0, 0.0, 1.651184894784962E9, 0.0, 2022-04-28 15:28:14.784
94.0, 84.32352430094033, 5569.045755068306, 2590.7614657548256, -3115.6639043358155, -0.11200000531971455, 0.19200000911951065, 0.9600000455975533, 0.0, 0.0, 0.0, 0.0, 0.0, 1.651184894784962E9, 0.0, 2022-04-28 15:28:14.784
95.0, 33.180392406880856, 5569.632919361349, 2539.524836361874, -2887.6197646376677, -0.11200000531971455, 0.19200000911951065, 0.9600000455975533, 0.0, 0.0, 0.0, 0.0, 0.0, 1.6511848947857013E9, 0.0, 2022-04-28 15:28:14.785
95.0, -55.372958743944764, 5609.5974902878515, 2340.586468068883, -2765.285767137073, -0.11200000531971455, 0.19200000911951065, 0.9600000455975533, 0.0, 0.0, 0.0, 0.0, 0.0, 1.6511848947857013E9, 0.0, 2022-04-28 15:28:14.785
96.0, 26.19425928965211, 5729.2873785197735, 2142.973894310184, -2940.3411343130283, -0.11200000531971455, 0.19200000911951065, 0.9600000455975533, 0.0, 0.0, 0.0, 0.0, 0.0, 1.6511848947864237E9, 0.0, 2022-04-28 15:28:14.786
96.0, 57.02973442431539, 5575.371795843355, 1961.0315013658255, -3147.567120907828, -0.11200000531971455, 0.19200000911951065, 0.9600000455975533, 0.0, 0.0, 0.0, 0.0, 0.0, 1.6511848947864237E9, 0.0, 2022-04-28 15:28:14.786
97.0, -2.7189072677865624, 5334.782161743846, 2038.0734404530376, -3137.5273594767787, -0.11200000531971455, 0.19200000911951065, 0.9600000455975533, 0.0, 0.0, 0.0, 0.0, 0.0, 1.6511848947986832E9, 0.0, 2022-04-28 15:28:14.798
97.0, -62.70316265709698, 5230.605378528126, 1948.4486079649068, -3290.115277668927, -0.11200000531971455, 0.19200000911951065, 0.9600000455975533, 0.0, 0.0, 0.0, 0.0, 0.0, 1.6511848947986832E9, 0.0, 2022-04-28 15:28:14.798
98.0, 84.23002680204809, 4991.363978362642, 1785.2169344988652, -3278.682403504383, -0.11200000531971455, 0.19200000911951065, 0.9600000455975533, 0.0, 0.0, 0.0, 0.0, 0.0, 1.6511848948142939E9, 0.0, 2022-04-28 15:28:14.814
98.0, 29.578868749551475, 5031.612781685777, 1673.3546568742022, -3052.798056030646, -0.11200000531971455, 0.19200000911951065, 0.9600000455975533, 0.0, 0.0, 0.0, 0.0, 0.0, 1.6511848948142939E9, 0.0, 2022-04-28 15:28:14.814
99.0, -87.75301256030798, 5030.589919047896, 1563.7886778223328, -3101.3943160548806, -0.11200000531971455, 0.19200000911951065, 0.9600000455975533, 0.0, 0.0, 0.0, 0.0, 0.0, 1.6511848948150575E9, 0.0, 2022-04-28 15:28:14.815
99.0, 81.72055393178016, 5010.132666290272, 1636.8270540069789, -3126.6292910058983, -0.11200000531971455, 0.19200000911951065, 0.9600000455975533, 0.0, 0.0, 0.0, 0.0, 0.0, 1.6511848948150575E9, 0.0, 2022-04-28 15:28:14.815
100.0, 36.419145768508315, 5022.758568540681, 1599.5514711486176, -2940.9507380058058, -0.11200000531971455, 0.19200000911951065, 0.9600000455975533, 0.0, 0.0, 0.0, 0.0, 0.0, 1.6511848948293092E9, 0.0, 2022-04-28 15:28:14.829
100.0, -59.314813297241926, 5078.800969376694, 1428.105107429903, -2842.604458821006, -0.11200000531971455, 0.19200000911951065, 0.9600000455975533, 0.0, 0.0, 0.0, 0.0, 0.0, 1.6511848948293092E9, 0.0, 2022-04-28 15:28:14.829
0.0, 28.41388991335407, -1227.9681012011133, 2086.48083552951, -1916.83523363946, -0.11200000531971455, 0.19200000911951065, 0.9600000455975533, 0.0, 0.0, 0.0, 0.0, 0.0, 1.6511848948300235E9, 0.0, 2022-04-28 15:28:14.830
1.0, 55.74507878953591, -1281.254195769783, 1982.7921092580073, -1700.2688469053246, -0.11200000531971455, 0.17600000835955143, 0.9600000455975533, 0.0, 0.0, 0.0, 0.0, 0.0, 1.651184894843618E9, 0.0, 2022-04-28 15:28:14.843
1.0, -2.294428622815758, -1508.1819753311574, 2076.1961106513627, -1690.1243682755157, -0.11200000531971455, 0.17600000835955143, 0.9600000455975533, 0.0, 0.0, 0.0, 0.0, 0.0, 1.651184894843618E9, 0.0, 2022-04-28 15:28:14.843
2.0, -63.50537119759247, -1715.942767619621, 1940.3274152111262, -1794.5461149383336, -0.11200000531971455, 0.17600000835955143, 0.9600000455975533, 0.0, 0.0, 0.0, 0.0, 0.0, 1.6511848948592649E9, 0.0, 2022-04-28 15:28:14.859
2.0, 81.49428998446092, -1787.5543719711713, 1764.077149999328, -1765.1841603862122, -0.11200000531971455, 0.17600000835955143, 0.9600000455975533, 0.0, 0.0, 0.0, 0.0, 0.0, 1.6511848948592649E9, 0.0, 2022-04-28 15:28:14.859
3.0, 21.53995379479602, -1807.325353086926, 1676.4531639874913, -1567.622075276915, -0.11200000531971455, 0.17600000835955143, 0.9600000455975533, 0.0, 0.0, 0.0, 0.0, 0.0, 1.651184894859995E9, 0.0, 2022-04-28 15:28:14.859
3.0, -92.82992675015703, -1863.8445911672898, 1596.0546646900475, -1658.2024522037245, -0.11200000531971455, 0.17600000835955143, 0.9600000455975533, 0.0, 0.0, 0.0, 0.0, 0.0, 1.651184894859995E9, 0.0, 2022-04-28 15:28:14.859
4.0, 79.55702180741355, -1827.550732047297, 1551.594734016806, -1554.7455997294746, -0.11200000531971455, 0.17600000835955143, 0.9600000455975533, 0.0, 0.0, 0.0, 0.0, 0.0, 1.6511848948735716E9, 0.0, 2022-04-28 15:28:14.873
4.0, 32.82323196111247, -1816.8359186742455, 1615.7284084069543, -1453.4055306301452, -0.11200000531971455, 0.17600000835955143, 0.9600000455975533, 0.0, 0.0, 0.0, 0.0, 0.0, 1.6511848948735716E9, 0.0, 2022-04-28 15:28:14.873
5.0, -61.175413525197655, -1806.9850221909583, 1504.9394820695743, -1435.1753882961348, -0.11200000531971455, 0.17600000835955143, 0.9600000455975533, 0.0, 0.0, 0.0, 0.0, 0.0, 1.6511848948892617E9, 0.0, 2022-04-28 15:28:14.889
5.0, 30.33619849057868, -1740.5737487277947, 1526.000728670042, -1341.6704096039757, -0.11200000531971455, 0.17600000835955143, 0.9600000455975533, 0.0, 0.0, 0.0, 0.0, 0.0, 1.6511848948892617E9, 0.0, 2022-04-28 15:28:14.889
6.0, 56.07792988559231, -1707.743036966771, 1483.8557960693724, -1202.9425606476143, -0.11200000531971455, 0.17600000835955143, 0.9600000455975533, 0.0, 0.0, 0.0, 0.0, 0.0, 1.651184894890072E9, 0.0, 2022-04-28 15:28:14.890
6.0, -5.368626386392862, -1481.882998842746, 1641.7169731990434, -1266.3189052967355, -0.11200000531971455, 0.17600000835955143, 0.9600000455975533, 0.0, 0.0, 0.0, 0.0, 0.0, 1.651184894890072E9, 0.0, 2022-04-28 15:28:14.890
7.0, -59.178306948859245, -1344.2172814738005, 1446.787777658552, -1302.6333338664845, -0.11200000531971455, 0.17600000835955143, 0.9600000455975533, 0.0, 0.0, 0.0, 0.0, 0.0, 1.651184894903552E9, 0.0, 2022-04-28 15:28:14.903
7.0, 86.77128882193938, -1280.0761272837408, 1241.8562196865678, -1246.194503635168, -0.11200000531971455, 0.17600000835955143, 0.9600000455975533, 0.0, 0.0, 0.0, 0.0, 0.0, 1.651184894903552E9, 0.0, 2022-04-28 15:28:14.903
8.0, 24.116744864266366, -1355.8184511363506, 1201.9982359088026, -1117.943984404672, -0.11200000531971455, 0.17600000835955143, 0.9600000455975533, 0.0, 0.0, 0.0, 0.0, 0.0, 1.6511848949193175E9, 0.0, 2022-04-28 15:28:14.919
8.0, -92.22780285729095, -1468.5147264511324, 1196.2257003271952, -1284.608886030037, -0.11200000531971455, 0.17600000835955143, 0.9600000455975533, 0.0, 0.0, 0.0, 0.0, 0.0, 1.6511848949193175E9, 0.0, 2022-04-28 15:28:14.919
9.0, 81.90193907963112, -1307.0838148137555, 989.2558968793601, -1480.8807056546211, -0.11200000531971455, 0.17600000835955143, 0.9600000455975533, 0.0, 0.0, 0.0, 0.0, 0.0, 1.6511848949200275E9, 0.0, 2022-04-28 15:28:14.920
9.0, 31.805979173164815, -1357.2564426693134, 1142.2271548169665, -1478.0533412881196, -0.11200000531971455, 0.17600000835955143, 0.9600000455975533, 0.0, 0.0, 0.0, 0.0, 0.0, 1.6511848949200275E9, 0.0, 2022-04-28 15:28:14.920
10.0, -61.186633225064725, -1375.9952113972977, 1107.425515779294, -1535.4234066084027, -0.11200000531971455, 0.17600000835955143, 0.9600000455975533, 0.0, 0.0, 0.0, 0.0, 0.0, 1.651184894933624E9, 0.0, 2022-04-28 15:28:14.933
10.0, 25.792220044415444, -1337.0422834088095, 996.5487017929554, -1293.4219602756202, -0.11200000531971455, 0.17600000835955143, 0.9600000455975533, 0.0, 0.0, 0.0, 0.0, 0.0, 1.651184894933624E9, 0.0, 2022-04-28 15:28:14.933
11.0, 53.34780291793868, -1195.3692632373422, 1013.2604447449557, -1227.3117487588897, -0.11200000531971455, 0.17600000835955143, 0.9600000455975533, 0.0, 0.0, 0.0, 0.0, 0.0, 1.6511848949492896E9, 0.0, 2022-04-28 15:28:14.949
11.0, -3.745509805623442, -1007.4542500637472, 1217.178489828948, -1341.1917024096474, -0.11200000531971455, 0.17600000835955143, 0.9600000455975533, 0.0, 0.0, 0.0, 0.0, 0.0, 1.6511848949492896E9, 0.0, 2022-04-28 15:28:14.949
12.0, -61.08191602630541, -972.1869934815913, 1460.9489088407718, -1317.6883011381142, -0.11200000531971455, 0.17600000835955143, 0.9600000455975533, 0.0, 0.0, 0.0, 0.0, 0.0, 1.6511848949500868E9, 0.0, 2022-04-28 15:28:14.950
12.0, 87.73618301050738, -745.2891331198625, 1219.7889399980195, -1222.0478395712562, -0.11200000531971455, 0.17600000835955143, 0.9600000455975533, 0.0, 0.0, 0.0, 0.0, 0.0, 1.6511848949500868E9, 0.0, 2022-04-28 15:28:14.950
13.0, 24.77870715642348, -865.5587058449164, 1237.3477702899836, -1145.9016065234318, -0.11200000531971455, 0.17600000835955143, 0.9600000455975533, 0.0, 0.0, 0.0, 0.0, 0.0, 1.6511848949635992E9, 0.0, 2022-04-28 15:28:14.963
13.0, -91.56958046508953, -1022.0828687404282, 1254.1623604907654, -1341.004707411863, -0.11200000531971455, 0.17600000835955143, 0.9600000455975533, 0.0, 0.0, 0.0, 0.0, 0.0, 1.6511848949635992E9, 0.0, 2022-04-28 15:28:14.963
14.0, 82.26096947537735, -840.1498255459592, 1435.2165271956474, -1444.5008288356476, -0.11200000531971455, 0.17600000835955143, 0.9600000455975533, 0.0, 0.0, 0.0, 0.0, 0.0, 1.6511848949792757E9, 0.0, 2022-04-28 15:28:14.979
14.0, 33.814305449370295, -876.0883941701613, 1654.51865074737, -1510.7269772510044, -0.11200000531971455, 0.17600000835955143, 0.9600000455975533, 0.0, 0.0, 0.0, 0.0, 0.0, 1.6511848949792757E9, 0.0, 2022-04-28 15:28:14.979
15.0, -63.90928039280698, -857.3178362925537, 1652.1157650258392, -1608.0877927974798, -0.11200000531971455, 0.17600000835955143, 0.9600000455975533, 0.0, 0.0, 0.0, 0.0, 0.0, 1.65118489498005E9, 0.0, 2022-04-28 15:28:14.980
15.0, 29.64431699877605, -899.4739885930903, 1418.9105633888394, -1718.5214286390692, -0.11200000531971455, 0.17600000835955143, 0.9600000455975533, 0.0, 0.0, 0.0, 0.0, 0.0, 1.65118489498005E9, 0.0, 2022-04-28 15:28:14.980
16.0, 53.85642931191251, -678.4776903614402, 1524.6169656864367, -1739.062829145696, -0.11200000531971455, 0.17600000835955143, 0.9600000455975533, 0.0, 0.0, 0.0, 0.0, 0.0, 1.651184894993698E9, 0.0, 2022-04-28 15:28:14.993
16.0, -7.605086559895426, -507.6428002854809, 1751.5765343974344, -1872.2444064677693, -0.11200000531971455, 0.17600000835955143, 0.9600000455975533, 0.0, 0.0, 0.0, 0.0, 0.0, 1.651184894993698E9, 0.0, 2022-04-28 15:28:14.993
17.0, -55.980692486744374, -570.2468555937521, 1931.2338484688662, -1769.9188737301156, -0.11200000531971455, 0.17600000835955143, 0.9600000455975533, 0.0, 0.0, 0.0, 0.0, 0.0, 1.65118489500939E9, 0.0, 2022-04-28 15:28:15.009
17.0, 86.1691649290733, -746.1418303097598, 1688.3086468470283, -1692.918073542416, -0.11200000531971455, 0.17600000835955143, 0.9600000455975533, 0.0, 0.0, 0.0, 0.0, 0.0, 1.65118489500939E9, 0.0, 2022-04-28 15:28:15.009
18.0, 24.206502463202924, -840.7145504392684, 1736.8226290722378, -1643.313910480123, -0.11200000531971455, 0.17600000835955143, 0.9600000455975533, 0.0, 0.0, 0.0, 0.0, 0.0, 1.6511848950101044E9, 0.0, 2022-04-28 15:28:15.010
18.0, -90.9113580728881, -1015.9120338135399, 1762.0332946735434, -1844.580366495531, -0.11200000531971455, 0.17600000835955143, 0.9600000455975533, 0.0, 0.0, 0.0, 0.0, 0.0, 1.6511848950101044E9, 0.0, 2022-04-28 15:28:15.010
19.0, 83.56245465995744, -845.0939732873812, 1860.4468920575455, -1872.6763649126515, -0.11200000531971455, 0.17600000835955143, 0.9600000455975533, 0.0, 0.0, 0.0, 0.0, 0.0, 1.651184895023644E9, 0.0, 2022-04-28 15:28:15.023
19.0, 32.51282026479021, -841.4737501302734, 1644.3928716173396, -1994.5372650688514, -0.11200000531971455, 0.17600000835955143, 0.9600000455975533, 0.0, 0.0, 0.0, 0.0, 0.0, 1.651184895023644E9, 0.0, 2022-04-28 15:28:15.023
20.0, -62.791050306055695, -847.3697024104185, 1710.297388636507, -2141.2311009308323, -0.11200000531971455, 0.17600000835955143, 0.9760000463575125, 0.0, 0.0, 0.0, 0.0, 0.0, 1.651184895039266E9, 0.0, 2022-04-28 15:28:15.039
20.0, 29.285286603029817, -947.7373975212686, 1858.0440063360147, -2135.3706777002662, -0.11200000531971455, 0.17600000835955143, 0.9760000463575125, 0.0, 0.0, 0.0, 0.0, 0.0, 1.651184895039266E9, 0.0, 2022-04-28 15:28:15.039
21.0, 58.01893796259537, -1152.074311400298, 2014.04458323773, -2234.7940480723046, -0.11200000531971455, 0.17600000835955143, 0.9760000463575125, 0.0, 0.0, 0.0, 0.0, 0.0, 1.6511848950400877E9, 0.0, 2022-04-28 15:28:15.040
21.0, -7.560207760427147, -949.1323802047409, 1792.745353109669, -2408.3328858162276, -0.11200000531971455, 0.17600000835955143, 0.9760000463575125, 0.0, 0.0, 0.0, 0.0, 0.0, 1.6511848950400877E9, 0.0, 2022-04-28 15:28:15.040
22.0, -61.73639851855114, -1110.271579645574, 1905.2789427763782, -2230.3454370750114, -0.11200000531971455, 0.17600000835955143, 0.9760000463575125, 0.0, 0.0, 0.0, 0.0, 0.0, 1.6511848950536473E9, 0.0, 2022-04-28 15:28:15.053
22.0, 83.62603295920417, -1204.7638919260353, 1676.901951982174, -2164.908407550305, -0.11200000531971455, 0.17600000835955143, 0.9760000463575125, 0.0, 0.0, 0.0, 0.0, 0.0, 1.6511848950536473E9, 0.0, 2022-04-28 15:28:15.053
23.0, 25.19009615154937, -1363.4384972960688, 1747.204591349233, -2162.7822744254954, -0.11200000531971455, 0.17600000835955143, 0.9760000463575125, 0.0, 0.0, 0.0, 0.0, 0.0, 1.6511848950692492E9, 0.0, 2022-04-28 15:28:15.069
23.0, -92.16796445799991, -1507.4564347397536, 1814.526530451607, -2401.6309850956313, -0.11200000531971455, 0.17600000835955143, 0.9760000463575125, 0.0, 0.0, 0.0, 0.0, 0.0, 1.6511848950692492E9, 0.0, 2022-04-28 15:28:15.069
24.0, 84.28799525136128, -1368.2891475385986, 1839.974679700099, -2328.220488865394, -0.11200000531971455, 0.17600000835955143, 0.9760000463575125, 0.0, 0.0, 0.0, 0.0, 0.0, 1.6511848950701585E9, 0.0, 2022-04-28 15:28:15.070
24.0, 32.46794146532193, -1366.0863464646973, 1672.7637526812032, -2518.4467602116056, -0.11200000531971455, 0.17600000835955143, 0.9760000463575125, 0.0, 0.0, 0.0, 0.0, 0.0, 1.6511848950701585E9, 0.0, 2022-04-28 15:28:15.070
25.0, -64.31692948797718, -1339.9706250741147, 1775.5661226632074, -2694.5698688249104, -0.11200000531971455, 0.17600000835955143, 0.9760000463575125, 0.0, 0.0, 0.0, 0.0, 0.0, 1.6511848950835586E9, 0.0, 2022-04-28 15:28:15.083
25.0, 32.41558286594227, -1508.6962115750648, 1792.876249608118, -2589.5833972687833, -0.11200000531971455, 0.17600000835955143, 0.9760000463575125, 0.0, 0.0, 0.0, 0.0, 0.0, 1.6511848950835586E9, 0.0, 2022-04-28 15:28:15.083
26.0, 52.311850630212575, -1617.5721790851094, 2035.2086770869792, -2740.2396571338177, -0.11200000531971455, 0.17600000835955143, 0.9760000463575125, 0.0, 0.0, 0.0, 0.0, 0.0, 1.651184895099238E9, 0.0, 2022-04-28 15:28:15.099
26.0, -11.517021913547069, -1431.661752287764, 1862.2962725856341, -2944.5092528136447, -0.11200000531971455, 0.17600000835955143, 0.9760000463575125, 0.0, 0.0, 0.0, 0.0, 0.0, 1.651184895099238E9, 0.0, 2022-04-28 15:28:15.099
27.0, -61.74387831846252, -1221.0792054827325, 1904.074694990646, -2725.8803112539463, -0.11200000531971455, 0.17600000835955143, 0.9760000463575125, 0.0, 0.0, 0.0, 0.0, 0.0, 1.6511848951000535E9, 0.0, 2022-04-28 15:28:15.100
27.0, 86.67405142309144, -1153.7890555299819, 2140.7972725359723, -2637.3755788025446, -0.11200000531971455, 0.17600000835955143, 0.9760000463575125, 0.0, 0.0, 0.0, 0.0, 0.0, 1.6511848951000535E9, 0.0, 2022-04-28 15:28:15.100
28.0, 25.20879565132782, -1325.7627451424487, 2232.2527860524133, -2651.048653040547, -0.11200000531971455, 0.17600000835955143, 0.9760000463575125, 0.0, 0.0, 0.0, 0.0, 0.0, 1.6511848951135795E9, 0.0, 2022-04-28 15:28:15.113
28.0, -95.49647541856393, -1547.5369425648823, 2354.4128782050684, -2441.6797037711367, -0.11200000531971455, 0.17600000835955143, 0.9760000463575125, 0.0, 0.0, 0.0, 0.0, 0.0, 1.6511848951135795E9, 0.0, 2022-04-28 15:28:15.113
29.0, 84.41889174981043, -1350.072094854433, 2255.6084612756968, -2264.640319668688, -0.11200000531971455, 0.17600000835955143, 0.9760000463575125, 0.0, 0.0, 0.0, 0.0, 0.0, 1.651184895129337E9, 0.0, 2022-04-28 15:28:15.129
29.0, 35.822631725575775, -1333.9419063455425, 2164.6353948535398, -2045.7421053121798, -0.11200000531971455, 0.17600000835955143, 0.9760000463575125, 0.0, 0.0, 0.0, 0.0, 0.0, 1.651184895129337E9, 0.0, 2022-04-28 15:28:15.129
30.0, -62.96308570401743, -1284.8781588268466, 2304.6385496947914, -2258.2544404943474, -0.11200000531971455, 0.17600000835955143, 0.9760000463575125, 0.0, 0.0, 0.0, 0.0, 0.0, 1.6511848951301036E9, 0.0, 2022-04-28 15:28:15.130
30.0, 31.110357781406492, -1504.6010211235844, 2208.00327473972, -2014.491501282435, -0.11200000531971455, 0.17600000835955143, 0.9760000463575125, 0.0, 0.0, 0.0, 0.0, 0.0, 1.6511848951301036E9, 0.0, 2022-04-28 15:28:15.130
31.0, 51.530211539473385, -1567.8913480737247, 2032.7777421157807, -1771.4615824618377, -0.11200000531971455, 0.17600000835955143, 0.9760000463575125, 0.0, 0.0, 0.0, 0.0, 0.0, 1.6511848951435943E9, 0.0, 2022-04-28 15:28:15.143
31.0, -7.552727960515767, -1376.412210242357, 1861.742767392192, -2002.5313012241386, -0.11200000531971455, 0.17600000835955143, 0.9760000463575125, 0.0, 0.0, 0.0, 0.0, 0.0, 1.6511848951435943E9, 0.0, 2022-04-28 15:28:15.143
32.0, -64.20847238926217, -1263.115680984687, 1850.4725788757205, -2176.526406762656, -0.11200000531971455, 0.17600000835955143, 0.9760000463575125, 0.0, 0.0, 0.0, 0.0, 0.0, 1.6511848951592536E9, 0.0, 2022-04-28 15:28:15.159
32.0, 83.73075015796348, -1111.5094865309075, 1619.7581506092101, -2120.7981575229205, -0.11200000531971455, 0.17600000835955143, 0.9760000463575125, 0.0, 0.0, 0.0, 0.0, 0.0, 1.6511848951592536E9, 0.0, 2022-04-28 15:28:15.159
33.0, 23.821292767766863, -1317.0487782456912, 1771.3774347128347, -2167.685283267405, -0.11200000531971455, 0.17600000835955143, 0.9760000463575125, 0.0, 0.0, 0.0, 0.0, 0.0, 1.6511848951600459E9, 0.0, 2022-04-28 15:28:15.160
33.0, -88.9853095957078, -1546.9796974714845, 1881.8877385035157, -1976.8924170779064, -0.11200000531971455, 0.17600000835955143, 0.9760000463575125, 0.0, 0.0, 0.0, 0.0, 0.0, 1.6511848951600459E9, 0.0, 2022-04-28 15:28:15.160
34.0, 82.48536347271875, -1326.0544573389925, 1712.7769423071295, -2199.0817433954217, -0.11200000531971455, 0.17600000835955143, 0.9760000463575125, 0.0, 0.0, 0.0, 0.0, 0.0, 1.651184895173633E9, 0.0, 2022-04-28 15:28:15.173
34.0, 32.06029237015173, -1313.215380791109, 1680.0079388953745, -2033.0731942122802, -0.11200000531971455, 0.17600000835955143, 0.9760000463575125, 0.0, 0.0, 0.0, 0.0, 0.0, 1.651184895173633E9, 0.0, 2022-04-28 15:28:15.173
35.0, -64.12619459023699, -1289.8335262681358, 1869.4450913509354, -1807.7685312316753, -0.11200000531971455, 0.17600000835955143, 0.9760000463575125, 0.0, 0.0, 0.0, 0.0, 0.0, 1.6511848951892312E9, 0.0, 2022-04-28 15:28:15.189
35.0, 31.877037272322923, -1080.1915643019602, 1640.974603057839, -1933.479658392258, -0.11200000531971455, 0.17600000835955143, 0.9760000463575125, 0.0, 0.0, 0.0, 0.0, 0.0, 1.6511848951892312E9, 0.0, 2022-04-28 15:28:15.189
36.0, 53.77415151288733, -1029.9628379470669, 1551.9537644125521, -1777.1929791439325, -0.11200000531971455, 0.17600000835955143, 0.9760000463575125, 0.0, 0.0, 0.0, 0.0, 0.0, 1.6511848951900537E9, 0.0, 2022-04-28 15:28:15.190
36.0, -10.724163122940809, -843.85419645207, 1420.7038454175927, -1556.4248148095794, -0.11200000531971455, 0.17600000835955143, 0.9760000463575125, 0.0, 0.0, 0.0, 0.0, 0.0, 1.6511848951900537E9, 0.0, 2022-04-28 15:28:15.190
37.0, -54.51465170411393, -830.2035616138019, 1344.4117562714964, -1653.9726253538392, -0.11200000531971455, 0.17600000835955143, 0.9760000463575125, 0.0, 0.0, 0.0, 0.0, 0.0, 1.651184895203578E9, 0.0, 2022-04-28 15:28:15.203
37.0, 85.92981133190915, -1041.3844924117438, 1106.340944792144, -1614.4680621218868, -0.11200000531971455, 0.17600000835955143, 0.9760000463575125, 0.0, 0.0, 0.0, 0.0, 0.0, 1.651184895203578E9, 0.0, 2022-04-28 15:28:15.203
38.0, 19.228695622179657, -804.4356509190984, 1288.8817217294127, -1707.9917403138243, -0.11200000531971455, 0.17600000835955143, 0.9760000463575125, 0.0, 0.0, 0.0, 0.0, 0.0, 1.6511848952192695E9, 0.0, 2022-04-28 15:28:15.219
38.0, -94.73727572755888, -616.9544661403634, 1428.5856845742092, -1504.6851688725874, -0.11200000531971455, 0.17600000835955143, 0.9760000463575125, 0.0, 0.0, 0.0, 0.0, 0.0, 1.6511848952192695E9, 0.0, 2022-04-28 15:28:15.219
39.0, 85.51468243682757, -818.2583211553283, 1643.194233681541, -1634.2970116869546, -0.11200000531971455, 0.17600000835955143, 0.9760000463575125, 0.0, 0.0, 0.0, 0.0, 0.0, 1.6511848952200408E9, 0.0, 2022-04-28 15:28:15.220
39.0, 31.469388177152723, -827.2209913991392, 1679.7405360485427, -1539.6943723578006, -0.11200000531971455, 0.17600000835955143, 0.9760000463575125, 0.0, 0.0, 0.0, 0.0, 0.0, 1.6511848952200408E9, 0.0, 2022-04-28 15:28:15.220
40.0, -65.6034550727345, -778.052526681684, 1906.7188042593189, -1385.3804903361015, -0.11200000531971455, 0.17600000835955143, 0.9760000463575125, 0.0, 0.0, 0.0, 0.0, 0.0, 1.6511848952499704E9, 0.0, 2022-04-28 15:28:15.249
40.0, 37.35599070740864, -594.2046547099017, 2062.528646263294, -1364.003222189378, -0.11200000531971455, 0.17600000835955143, 0.9760000463575125, 0.0, 0.0, 0.0, 0.0, 0.0, 1.6511848952499704E9, 0.0, 2022-04-28 15:28:15.249
41.0, 56.94932657526806, -502.56027624569833, 2053.807199566625, -1281.4860695670359, -0.11200000531971455, 0.17600000835955143, 0.9760000463575125, 0.0, 0.0, 0.0, 0.0, 0.0, 1.6511848952507489E9, 0.0, 2022-04-28 15:28:15.250
41.0, -8.24834935227409, -319.3837163159624, 1942.9060762305744, -1089.3318797936663, -0.11200000531971455, 0.17600000835955143, 0.9760000463575125, 0.0, 0.0, 0.0, 0.0, 0.0, 1.6511848952507489E9, 0.0, 2022-04-28 15:28:15.250
42.0, -60.356375434901565, -392.8260016958229, 1783.5956878680736, -1125.6350886635482, -0.11200000531971455, 0.17600000835955143, 0.9760000463575125, 0.0, 0.0, 0.0, 0.0, 0.0, 1.651184895251527E9, 0.0, 2022-04-28 15:28:15.251
42.0, 85.85127343283966, -506.9340892438777, 1553.4422445949167, -1087.4619298158213, -0.11200000531971455, 0.17600000835955143, 0.9760000463575125, 0.0, 0.0, 0.0, 0.0, 0.0, 1.651184895251527E9, 0.0, 2022-04-28 15:28:15.251
43.0, 21.52873409492895, -302.2418848690577, 1774.1150414803997, -1191.8350577792153, -0.11200000531971455, 0.17600000835955143, 0.9760000463575125, 0.0, 0.0, 0.0, 0.0, 0.0, 1.6511848952635512E9, 0.0, 2022-04-28 15:28:15.263
43.0, -91.00859547173604, -97.99846848892048, 1938.9399123275653, -1042.154911802616, -0.11200000531971455, 0.17600000835955143, 0.9760000463575125, 0.0, 0.0, 0.0, 0.0, 0.0, 1.6511848952635512E9, 0.0, 2022-04-28 15:28:15.263
44.0, 86.97698331950232, -280.3036317289807, 2082.9653295711614, -1089.7881475882605, -0.11200000531971455, 0.17600000835955143, 0.9760000463575125, 0.0, 0.0, 0.0, 0.0, 0.0, 1.651184895295643E9, 0.0, 2022-04-28 15:28:15.295
44.0, 31.17767598060891, -283.218883744441, 2183.8753101755865, -1066.7746732109226, -0.11200000531971455, 0.17600000835955143, 0.9760000463575125, 0.0, 0.0, 0.0, 0.0, 0.0, 1.651184895295643E9, 0.0, 2022-04-28 15:28:15.295
45.0, -65.5286570736207, -252.91821430344135, 1962.6620977465063, -919.618959704414, -0.11200000531971455, 0.17600000835955143, 0.9760000463575125, 0.0, 0.0, 0.0, 0.0, 0.0, 1.6511848952963407E9, 0.0, 2022-04-28 15:28:15.296
45.0, 34.203255044762045, -113.47417450556532, 2004.2890542033128, -796.9315416580066, -0.11200000531971455, 0.17600000835955143, 0.9760000463575125, 0.0, 0.0, 0.0, 0.0, 0.0, 1.6511848952963407E9, 0.0, 2022-04-28 15:28:15.296
46.0, 52.92145432299003, 29.33951515238732, 2054.6935558561236, -813.860198807437, -0.11200000531971455, 0.17600000835955143, 0.9760000463575125, 0.0, 0.0, 0.0, 0.0, 0.0, 1.6511848952970843E9, 0.0, 2022-04-28 15:28:15.297
46.0, -10.353913027327508, 226.61923781502992, 1974.3735944577493, -647.2457858314738, -0.11200000531971455, 0.17600000835955143, 0.9760000463575125, 0.0, 0.0, 0.0, 0.0, 0.0, 1.6511848952970843E9, 0.0, 2022-04-28 15:28:15.297
47.0, -56.25370518350974, 49.28627156605944, 1735.384637539275, -579.2974134865217, -0.11200000531971455, 0.17600000835955143, 0.9760000463575125, 0.0, 0.0, 0.0, 0.0, 0.0, 1.6511848952978325E9, 0.0, 2022-04-28 15:28:15.297
47.0, 86.87974592065439, 26.158730240073055, 1564.7255227612332, -607.9992756964639, -0.11200000531971455, 0.17600000835955143, 0.9760000463575125, 0.0, 0.0, 0.0, 0.0, 0.0, 1.6511848952978325E9, 0.0, 2022-04-28 15:28:15.297
48.0, 25.18261635163799, 197.41996891098097, 1782.3877001823857, -738.0019380562007, -0.11200000531971455, 0.17600000835955143, 0.9760000463575125, 0.0, 0.0, 0.0, 0.0, 0.0, 1.6511848953085947E9, 0.0, 2022-04-28 15:28:15.308
48.0, -88.48042310168967, 384.1718731983565, 1947.4294852269813, -559.345047222916, -0.11200000531971455, 0.17600000835955143, 0.9760000463575125, 0.0, 0.0, 0.0, 0.0, 0.0, 1.6511848953085947E9, 0.0, 2022-04-28 15:28:15.308
49.0, 84.5759675479494, 208.68080767756328, 2027.5549718276598, -551.5174366156571, -0.11200000531971455, 0.17600000835955143, 0.9760000463575125, 0.0, 0.0, 0.0, 0.0, 0.0, 1.6511848953399417E9, 0.0, 2022-04-28 15:28:15.339
49.0, 32.92794915987179, 207.11565954610705, 2187.6862682304345, -585.8983369083144, -0.11200000531971455, 0.17600000835955143, 0.9760000463575125, 0.0, 0.0, 0.0, 0.0, 0.0, 1.6511848953399417E9, 0.0, 2022-04-28 15:28:15.339
50.0, -65.72687177127227, 256.4636394614354, 1986.6572958622128, -479.0063863247633, -0.11200000531971455, 0.17600000835955143, 0.9760000463575125, 0.0, 0.0, 0.0, 0.0, 0.0, 1.6511848953406868E9, 0.0, 2022-04-28 15:28:15.340
50.0, 36.40231621870771, 328.7390760551207, 1922.7274460196495, -241.9266483336687, -0.11200000531971455, 0.17600000835955143, 0.9760000463575125, 0.0, 0.0, 0.0, 0.0, 0.0, 1.6511848953406868E9, 0.0, 2022-04-28 15:28:15.340
51.0, 54.91856089932844, 559.1786216748878, 2050.985445050057, -334.71917608426884, -0.11200000531971455, 0.17600000835955143, 0.9760000463575125, 0.0, 0.0, 0.0, 0.0, 0.0, 1.6511848953414657E9, 0.0, 2022-04-28 15:28:15.341
51.0, -14.785694474820048, 738.0056779561564, 2004.2460453538224, -197.78086925670505, -0.11200000531971455, 0.17600000835955143, 0.9760000463575125, 0.0, 0.0, 0.0, 0.0, 0.0, 1.6511848953414657E9, 0.0, 2022-04-28 15:28:15.341
52.0, -54.350096106063575, 969.3259700154886, 2198.862959248014, -63.47545199794695, -0.09600000455975533, 0.17600000835955143, 0.9760000463575125, 0.0, 0.0, 0.0, 0.0, 0.0, 1.6511848953536706E9, 0.0, 2022-04-28 15:28:15.353
52.0, 85.19305104063824, 1061.6173511720262, 2028.6750718643889, -71.34981135465205, -0.09600000455975533, 0.17600000835955143, 0.9760000463575125, 0.0, 0.0, 0.0, 0.0, 0.0, 1.6511848953536706E9, 0.0, 2022-04-28 15:28:15.353
53.0, 27.389157325495034, 1216.5240073367022, 1787.027046077419, -241.94160793349147, -0.09600000455975533, 0.17600000835955143, 0.9760000463575125, 0.0, 0.0, 0.0, 0.0, 0.0, 1.651184895370047E9, 0.0, 2022-04-28 15:28:15.370
53.0, -90.76924187457189, 1338.590601990465, 1987.7474766992964, -113.83694480126724, -0.09600000455975533, 0.17600000835955143, 0.9760000463575125, 0.0, 0.0, 0.0, 0.0, 0.0, 1.651184895370047E9, 0.0, 2022-04-28 15:28:15.370
54.0, 89.56125418888405, 1238.488439776469, 1958.7146333432756, 18.798607127275318, -0.09600000455975533, 0.17600000835955143, 0.9760000463575125, 0.0, 0.0, 0.0, 0.0, 0.0, 1.651184895370874E9, 0.0, 2022-04-28 15:28:15.370
54.0, 30.41473638964817, 1206.0504175107926, 2196.389015427325, -93.04684094758704, -0.09600000455975533, 0.17600000835955143, 0.9760000463575125, 0.0, 0.0, 0.0, 0.0, 0.0, 1.651184895370874E9, 0.0, 2022-04-28 15:28:15.370
55.0, -63.8644015933387, 1262.7286013392732, 2033.0357952127233, -47.02550204284489, -0.09600000455975533, 0.17600000835955143, 0.9760000463575125, 0.0, 0.0, 0.0, 0.0, 0.0, 1.651184895384907E9, 0.0, 2022-04-28 15:28:15.384
55.0, 34.83155823731795, 1307.620490457397, 1835.632655851543, -158.55866847140715, -0.09600000455975533, 0.17600000835955143, 0.9760000463575125, 0.0, 0.0, 0.0, 0.0, 0.0, 1.651184895384907E9, 0.0, 2022-04-28 15:28:15.384
56.0, 57.68234696658328, 1071.400929456111, 2051.0191041496582, -338.06077669467777, -0.09600000455975533, 0.17600000835955143, 0.9760000463575125, 0.0, 0.0, 0.0, 0.0, 0.0, 1.6511848953992472E9, 0.0, 2022-04-28 15:28:15.399
56.0, -14.860492473933846, 1287.4773892960511, 2046.174063757062, -237.55283533548936, -0.09600000455975533, 0.17600000835955143, 0.9760000463575125, 0.0, 0.0, 0.0, 0.0, 0.0, 1.6511848953992472E9, 0.0, 2022-04-28 15:28:15.399
57.0, -52.55494412733242, 1435.7906018388458, 2156.276718452573, -10.535298175178468, -0.09600000455975533, 0.17600000835955143, 0.9760000463575125, 0.0, 0.0, 0.0, 0.0, 0.0, 1.6511848954001176E9, 0.0, 2022-04-28 15:28:15.400
57.0, 87.75862241024151, 1617.7012056335807, 2006.5722631262615, -65.65581367211416, -0.09600000455975533, 0.17600000835955143, 0.9760000463575125, 0.0, 0.0, 0.0, 0.0, 0.0, 1.6511848954001176E9, 0.0, 2022-04-28 15:28:15.400
58.0, 22.38891108473763, 1721.1206591082737, 1791.563544723671, -261.45453595230356, -0.09600000455975533, 0.17600000835955143, 0.9760000463575125, 0.0, 0.0, 0.0, 0.0, 0.0, 1.6511848954136732E9, 0.0, 2022-04-28 15:28:15.413
58.0, -91.67055776389316, 1844.5223980462179, 2001.6973035340197, -157.87239682953805, -0.09600000455975533, 0.17600000835955143, 0.9760000463575125, 0.0, 0.0, 0.0, 0.0, 0.0, 1.6511848954136732E9, 0.0, 2022-04-28 15:28:15.413
59.0, 89.23588289273903, 1717.9791431454942, 1908.8692467338406, 68.76180058531463, -0.09600000455975533, 0.17600000835955143, 0.9760000463575125, 0.0, 0.0, 0.0, 0.0, 0.0, 1.651184895429332E9, 0.0, 2022-04-28 15:28:15.429
59.0, 31.099138081539422, 1699.7153417118825, 1718.7009438369423, -100.63696790765971, -0.09600000455975533, 0.17600000835955143, 0.9760000463575125, 0.0, 0.0, 0.0, 0.0, 0.0, 1.651184895429332E9, 0.0, 2022-04-28 15:28:15.429
60.0, -64.46652548620477, 1799.0096855354495, 1582.1291472050361, -76.2397305467166, -0.09600000455975533, 0.17600000835955143, 0.9760000463575125, 0.0, 0.0, 0.0, 0.0, 0.0, 1.651184895430218E9, 0.0, 2022-04-28 15:28:15.430
60.0, 35.052212334703654, 1755.368792952504, 1760.8496163375676, -74.051889072638, -0.09600000455975533, 0.17600000835955143, 0.9760000463575125, 0.0, 0.0, 0.0, 0.0, 0.0, 1.651184895430218E9, 0.0, 2022-04-28 15:28:15.430
61.0, 52.56616382719949, 1608.9030909878202, 1587.1649224953726, 140.57722948445007, -0.09600000455975533, 0.17600000835955143, 0.9760000463575125, 0.0, 0.0, 0.0, 0.0, 0.0, 1.6511848954436913E9, 0.0, 2022-04-28 15:28:15.443
61.0, -12.69509039958939, 1834.2507628179155, 1573.6732334052213, 225.01856063399464, -0.09600000455975533, 0.17600000835955143, 0.9760000463575125, 0.0, 0.0, 0.0, 0.0, 0.0, 1.6511848954436913E9, 0.0, 2022-04-28 15:28:15.443
62.0, -55.80865708878264, 1856.3947104555555, 1620.8071925467812, 49.47513651382178, -0.09600000455975533, 0.17600000835955143, 0.9760000463575125, 0.0, 0.0, 0.0, 0.0, 0.0, 1.6511848954598074E9, 0.0, 2022-04-28 15:28:15.459
62.0, 83.23334346385673, 1630.0746646369807, 1516.7556959795766, -52.47640622826293, -0.09600000455975533, 0.17600000835955143, 0.9760000463575125, 0.0, 0.0, 0.0, 0.0, 0.0, 1.6511848954598074E9, 0.0, 2022-04-28 15:28:15.459
63.0, 19.666263916995376, 1744.7998356777243, 1311.4482780620456, -256.9554363056086, -0.09600000455975533, 0.17600000835955143, 0.9760000463575125, 0.0, 0.0, 0.0, 0.0, 0.0, 1.6511848954743395E9, 0.0, 2022-04-28 15:28:15.474
63.0, -95.23094252170995, 1858.5638524298556, 1518.4779199091718, -136.33431298471987, -0.09600000455975533, 0.17600000835955143, 0.9760000463575125, 0.0, 0.0, 0.0, 0.0, 0.0, 1.6511848954743395E9, 0.0, 2022-04-28 15:28:15.474
64.0, 87.12657931772992, 1725.543090805877, 1379.922106350772, -378.7527581625618, -0.09600000455975533, 0.17600000835955143, 0.9760000463575125, 0.0, 0.0, 0.0, 0.0, 0.0, 1.6511848954751263E9, 0.0, 2022-04-28 15:28:15.475
64.0, 34.32293184334412, 1730.8537487429567, 1230.2606598739512, -602.1930810152553, -0.09600000455975533, 0.17600000835955143, 0.9760000463575125, 0.0, 0.0, 0.0, 0.0, 0.0, 1.6511848954751263E9, 0.0, 2022-04-28 15:28:15.475
65.0, -67.62674094876274, 1818.1991122080944, 1136.9183668298647, -622.9869247688912, -0.09600000455975533, 0.17600000835955143, 0.9760000463575125, 0.0, 0.0, 0.0, 0.0, 0.0, 1.6511848954892633E9, 0.0, 2022-04-28 15:28:15.489
65.0, 39.454074582550675, 1719.151601781603, 1243.1296556214802, -510.21024160506204, -0.09600000455975533, 0.17600000835955143, 0.9760000463575125, 0.0, 0.0, 0.0, 0.0, 0.0, 1.6511848954892633E9, 0.0, 2022-04-28 15:28:15.489
66.0, 50.46060015214607, 1631.94087471487, 1125.5920798140578, -368.8308035801165, -0.09600000455975533, 0.17600000835955143, 0.9760000463575125, 0.0, 0.0, 0.0, 0.0, 0.0, 1.651184895490148E9, 0.0, 2022-04-28 15:28:15.490
66.0, -13.540307789575309, 1834.0562880202197, 1159.939321007114, -333.73745234590024, -0.09600000455975533, 0.17600000835955143, 0.9760000463575125, 0.0, 0.0, 0.0, 0.0, 0.0, 1.651184895490148E9, 0.0, 2022-04-28 15:28:15.490
67.0, -50.06791065679863, 1745.5197664191946, 1106.303545792587, -423.3828542837873, -0.09600000455975533, 0.17600000835955143, 0.9760000463575125, 0.0, 0.0, 0.0, 0.0, 0.0, 1.6511848955036535E9, 0.0, 2022-04-28 15:28:15.503
67.0, 86.0607078303583, 1663.2606668937951, 1020.2783670118079, -548.6152742500417, -0.09600000455975533, 0.17600000835955143, 0.9760000463575125, 0.0, 0.0, 0.0, 0.0, 0.0, 1.6511848955036535E9, 0.0, 2022-04-28 15:28:15.503
68.0, 15.245702169369906, 1698.0716556813568, 864.5769821065478, -787.6061011184938, -0.09600000455975533, 0.17600000835955143, 0.9760000463575125, 0.0, 0.0, 0.0, 0.0, 0.0, 1.651184895519421E9, 0.0, 2022-04-28 15:28:15.519
68.0, -94.08279323531315, 1751.2268537515774, 1096.705092556309, -681.4247315265238, -0.09600000455975533, 0.17600000835955143, 0.9760000463575125, 0.0, 0.0, 0.0, 0.0, 0.0, 1.651184895519421E9, 0.0, 2022-04-28 15:28:15.519
69.0, 86.1691649290733, 1695.476165112108, 862.5013376311399, -849.1162356897257, -0.09600000455975533, 0.17600000835955143, 0.9760000463575125, 0.0, 0.0, 0.0, 0.0, 0.0, 1.651184895520173E9, 0.0, 2022-04-28 15:28:15.520
69.0, 33.47023465344682, 1694.812332869973, 774.1031923284754, -645.9667400466278, -0.09600000455975533, 0.17600000835955143, 0.9760000463575125, 0.0, 0.0, 0.0, 0.0, 0.0, 1.651184895520173E9, 0.0, 2022-04-28 15:28:15.520
70.0, -69.87442082213238, 1795.8606897727586, 712.9202990033664, -676.200091288425, -0.09600000455975533, 0.17600000835955143, 0.9760000463575125, 0.0, 0.0, 0.0, 0.0, 0.0, 1.6511848955335915E9, 0.0, 2022-04-28 15:28:15.533
70.0, 38.34706419566646, 1646.219812745694, 685.5853702272289, -450.4821693627164, -0.09600000455975533, 0.17600000835955143, 0.9760000463575125, 0.0, 0.0, 0.0, 0.0, 0.0, 1.6511848955335915E9, 0.0, 2022-04-28 15:28:15.533
71.0, 48.56447087461129, 1637.464706949424, 648.9418304613791, -396.5864711012691, -0.09600000455975533, 0.17600000835955143, 0.9760000463575125, 0.0, 0.0, 0.0, 0.0, 0.0, 1.6511848955493815E9, 0.0, 2022-04-28 15:28:15.549
71.0, -16.139538258779794, 1855.2877000686713, 711.6636926182546, -370.50253886030987, -0.09600000455975533, 0.17600000835955143, 0.9760000463575125, 0.0, 0.0, 0.0, 0.0, 0.0, 1.6511848955493815E9, 0.0, 2022-04-28 15:28:15.549
72.0, -51.107602844480425, 1683.4299473548308, 588.5667555266991, -377.25305828033015, -0.09600000455975533, 0.17600000835955143, 0.9760000463575125, 0.0, 0.0, 0.0, 0.0, 0.0, 1.6511848955499227E9, 0.0, 2022-04-28 15:28:15.549
72.0, 86.37859932659194, 1688.3086468470283, 531.2266094060615, -542.0760591775179, -0.09600000455975533, 0.17600000835955143, 0.9760000463575125, 0.0, 0.0, 0.0, 0.0, 0.0, 1.6511848955499227E9, 0.0, 2022-04-28 15:28:15.549
73.0, 22.175736787263304, 1725.8909015017562, 373.88714832020923, -311.9918040535413, -0.09600000455975533, 0.17600000835955143, 0.9760000463575125, 0.0, 0.0, 0.0, 0.0, 0.0, 1.651184895563598E9, 0.0, 2022-04-28 15:28:15.563
73.0, -95.82184671470895, 1797.1285158577375, 603.2439929028042, -201.9433779073879, -0.09600000455975533, 0.17600000835955143, 0.9760000463575125, 0.0, 0.0, 0.0, 0.0, 0.0, 1.651184895563598E9, 0.0, 2022-04-28 15:28:15.563
74.0, 88.72351659880951, 1711.903675667476, 810.144608201459, -304.0931353471242, -0.09600000455975533, 0.17600000835955143, 0.9760000463575125, 0.0, 0.0, 0.0, 0.0, 0.0, 1.6511848955793576E9, 0.0, 2022-04-28 15:28:15.579
74.0, 32.35948436660692, 1718.7102935868315, 765.8997217756696, -149.68949572648853, -0.09600000455975533, 0.17600000835955143, 0.9760000463575125, 0.0, 0.0, 0.0, 0.0, 0.0, 1.6511848955793576E9, 0.0, 2022-04-28 15:28:15.579
75.0, -69.21993832988665, 1828.588554285001, 737.6017687609419, -228.50040749274194, -0.09600000455975533, 0.17600000835955143, 0.9760000463575125, 0.0, 0.0, 0.0, 0.0, 0.0, 1.6511848955801048E9, 0.0, 2022-04-28 15:28:15.580
75.0, 39.17358208587393, 1613.548046732787, 608.7472556876019, -370.7157131577842, -0.09600000455975533, 0.17600000835955143, 0.9760000463575125, 0.0, 0.0, 0.0, 0.0, 0.0, 1.6511848955801048E9, 0.0, 2022-04-28 15:28:15.580
76.0, 51.21232004323974, 1656.8168192701414, 655.841945879627, -415.87687507271767, -0.09600000455975533, 0.17600000835955143, 0.9760000463575125, 0.0, 0.0, 0.0, 0.0, 0.0, 1.6511848955935204E9, 0.0, 2022-04-28 15:28:15.593
76.0, -8.581200448330492, 1424.0921947774477, 720.2766822162084, -405.018075551372, -0.09600000455975533, 0.17600000835955143, 0.9760000463575125, 0.0, 0.0, 0.0, 0.0, 0.0, 1.6511848955935204E9, 0.0, 2022-04-28 15:28:15.593
77.0, -49.00203916942701, 1655.9510324303992, 516.2146509839222, -331.66180787049234, -0.09600000455975533, 0.17600000835955143, 0.9760000463575125, 0.0, 0.0, 0.0, 0.0, 0.0, 1.6511848956093328E9, 0.0, 2022-04-28 15:28:15.609
77.0, 84.70312414644286, 1734.3038064520806, 516.4521346311085, -536.4755589938723, -0.09600000455975533, 0.17600000835955143, 0.9760000463575125, 0.0, 0.0, 0.0, 0.0, 0.0, 1.6511848956093328E9, 0.0, 2022-04-28 15:28:15.609
78.0, 21.730688692536205, 1740.4035832798108, 404.0475715128705, -321.5678178900853, -0.09600000455975533, 0.17600000835955143, 0.9760000463575125, 0.0, 0.0, 0.0, 0.0, 0.0, 1.6511848956100247E9, 0.0, 2022-04-28 15:28:15.610
78.0, -91.88747196132317, 1787.8666536174715, 627.8581444611773, -224.54172338964418, -0.09600000455975533, 0.17600000835955143, 0.9760000463575125, 0.0, 0.0, 0.0, 0.0, 0.0, 1.6511848956100247E9, 0.0, 2022-04-28 15:28:15.610
79.0, 87.354713215027, 1715.0283620804548, 774.1275016781874, -265.18882605805993, -0.09600000455975533, 0.17600000835955143, 0.9760000463575125, 0.0, 0.0, 0.0, 0.0, 0.0, 1.6511848956236644E9, 0.0, 2022-04-28 15:28:15.623
79.0, 35.029772934969515, 1750.037565565668, 774.8044235701673, -162.18637142842636, -0.09600000455975533, 0.17600000835955143, 0.9760000463575125, 0.0, 0.0, 0.0, 0.0, 0.0, 1.6511848956236644E9, 0.0, 2022-04-28 15:28:15.623
80.0, -71.78176979953423, 1873.1924711065367, 794.3416609386913, -279.4060557396151, -0.09600000455975533, 0.17600000835955143, 0.9760000463575125, 0.0, 0.0, 0.0, 0.0, 0.0, 1.651184895639352E9, 0.0, 2022-04-28 15:28:15.639
80.0, 37.36347050732002, 2062.7736097103916, 565.0072557558306, -292.6546513326466, -0.09600000455975533, 0.17600000835955143, 0.9760000463575125, 0.0, 0.0, 0.0, 0.0, 0.0, 1.651184895639352E9, 0.0, 2022-04-28 15:28:15.639
81.0, 48.676667873281986, 2207.229115448892, 683.7659088987857, -424.35335832228884, -0.09600000455975533, 0.17600000835955143, 0.9760000463575125, 0.0, 0.0, 0.0, 0.0, 0.0, 1.651184895640102E9, 0.0, 2022-04-28 15:28:15.640
81.0, -15.07366677140817, 2417.7518238546327, 780.5582596519962, -456.7857707380317, -0.09600000455975533, 0.17600000835955143, 0.9760000463575125, 0.0, 0.0, 0.0, 0.0, 0.0, 1.651184895640102E9, 0.0, 2022-04-28 15:28:15.640
82.0, -47.60331658599898, 2536.31787214987, 980.7214451804757, -277.63895301055163, -0.09600000455975533, 0.17600000835955143, 0.9760000463575125, 0.0, 0.0, 0.0, 0.0, 0.0, 1.6511848956535473E9, 0.0, 2022-04-28 15:28:15.653
82.0, 81.81218148069456, 2733.5022273636423, 993.5362123786472, -44.55342817213386, -0.09600000455975533, 0.17600000835955143, 0.9760000463575125, 0.0, 0.0, 0.0, 0.0, 0.0, 1.6511848956535473E9, 0.0, 2022-04-28 15:28:15.653
83.0, 19.98041551327333, 2725.437133109197, 897.8602217622101, 144.425586538855, -0.09600000455975533, 0.17600000835955143, 0.9760000463575125, 0.0, 0.0, 0.0, 0.0, 0.0, 1.651184895669328E9, 0.0, 2022-04-28 15:28:15.669
83.0, -95.77322801528499, 2733.253524016589, 656.6011455706321, 230.46011506952345, -0.09600000455975533, 0.17600000835955143, 0.9760000463575125, 0.0, 0.0, 0.0, 0.0, 0.0, 1.651184895669328E9, 0.0, 2022-04-28 15:28:15.669
84.0, 91.6555981640704, 2683.6287915045395, 710.3939965832978, 287.3664327953011, -0.09600000455975533, 0.17600000835955143, 0.9760000463575125, 0.0, 0.0, 0.0, 0.0, 0.0, 1.6511848956700103E9, 0.0, 2022-04-28 15:28:15.670
84.0, 31.865817572455853, 2707.732446718961, 812.6017224723473, 307.5824620057829, -0.09600000455975533, 0.17600000835955143, 0.9760000463575125, 0.0, 0.0, 0.0, 0.0, 0.0, 1.6511848956700103E9, 0.0, 2022-04-28 15:28:15.670
85.0, -69.67246622452512, 2827.383066001348, 851.4630229119211, 150.63008056534454, -0.09600000455975533, 0.17600000835955143, 0.9760000463575125, 0.0, 0.0, 0.0, 0.0, 0.0, 1.6511848956835673E9, 0.0, 2022-04-28 15:28:15.683
85.0, 41.406302359420806, 2985.328390880022, 997.6127033303492, 252.40397805953398, -0.09600000455975533, 0.17600000835955143, 0.9760000463575125, 0.0, 0.0, 0.0, 0.0, 0.0, 1.6511848956835673E9, 0.0, 2022-04-28 15:28:15.683
86.0, 50.318483953829855, 3221.153392435983, 1178.0497865425423, 36.54630236700177, -0.09600000455975533, 0.17600000835955143, 0.9760000463575125, 0.0, 0.0, 0.0, 0.0, 0.0, 1.651184895699308E9, 0.0, 2022-04-28 15:28:15.699
86.0, -21.18840319896117, 3427.337816893123, 1330.3946112375706, -29.43301265127957, -0.09600000455975533, 0.17600000835955143, 0.9760000463575125, 0.0, 0.0, 0.0, 0.0, 0.0, 1.651184895699308E9, 0.0, 2022-04-28 15:28:15.699
87.0, -54.85124270012602, 3449.496724130586, 1434.7527796011418, -235.46410121023655, -0.09600000455975533, 0.17600000835955143, 0.9760000463575125, 0.0, 0.0, 0.0, 0.0, 0.0, 1.6511848957000508E9, 0.0, 2022-04-28 15:28:15.700
87.0, 86.82738732127473, 3259.2667128844187, 1470.799805324059, -20.50961135700345, -0.09600000455975533, 0.17600000835955143, 0.9760000463575125, 0.0, 0.0, 0.0, 0.0, 0.0, 1.6511848957000508E9, 0.0, 2022-04-28 15:28:15.700
88.0, 19.86073871469125, 3260.6168167684227, 1388.2583433520049, 131.39203519327566, -0.09600000455975533, 0.17600000835955143, 0.9760000463575125, 0.0, 0.0, 0.0, 0.0, 0.0, 1.651184895713556E9, 0.0, 2022-04-28 15:28:15.713
88.0, -91.18063086969778, 3232.6255355500616, 1181.7541574486531, 217.97258911747485, -0.09600000455975533, 0.17600000835955143, 0.9760000463575125, 0.0, 0.0, 0.0, 0.0, 0.0, 1.651184895713556E9, 0.0, 2022-04-28 15:28:15.713
89.0, 89.00026919553056, 3185.4429577090777, 1175.3738881242462, 322.21108068246394, -0.09600000455975533, 0.17600000835955143, 0.9760000463575125, 0.0, 0.0, 0.0, 0.0, 0.0, 1.651184895729264E9, 0.0, 2022-04-28 15:28:15.729
89.0, 27.882824119646102, 3197.9753624605946, 1308.331071448978, 302.67384331393987, -0.09600000455975533, 0.17600000835955143, 0.9760000463575125, 0.0, 0.0, 0.0, 0.0, 0.0, 1.651184895729264E9, 0.0, 2022-04-28 15:28:15.729
90.0, -67.43226615106687, 3374.9923071633093, 1371.1464311047457, 128.55532107688487, -0.09600000455975533, 0.17600000835955143, 0.9760000463575125, 0.0, 0.0, 0.0, 0.0, 0.0, 1.6511848957300835E9, 0.0, 2022-04-28 15:28:15.730
90.0, 39.667248880025, 3426.2382863061503, 1406.4716561362147, 316.1113038547337, -0.09600000455975533, 0.17600000835955143, 0.9760000463575125, 0.0, 0.0, 0.0, 0.0, 0.0, 1.6511848957300835E9, 0.0, 2022-04-28 15:28:15.730
91.0, 50.329703653696924, 3247.4149699248374, 1201.9851462589577, 523.0025694034994, -0.09600000455975533, 0.17600000835955143, 0.9760000463575125, 0.0, 0.0, 0.0, 0.0, 0.0, 1.6511848957599373E9, 0.0, 2022-04-28 15:28:15.759
91.0, -14.27332818089053, 3017.240957201924, 1356.4579740287736, 425.8025695551187, -0.09600000455975533, 0.17600000835955143, 0.9760000463575125, 0.0, 0.0, 0.0, 0.0, 0.0, 1.6511848957599373E9, 0.0, 2022-04-28 15:28:15.759
92.0, -42.93218154134229, 2925.5516999382526, 1389.7505634343252, 306.67927616648376, -0.09600000455975533, 0.17600000835955143, 0.9760000463575125, 0.0, 0.0, 0.0, 0.0, 0.0, 1.6511848957606432E9, 0.0, 2022-04-28 15:28:15.760
92.0, 85.05467474227771, 2784.4564943099394, 1481.4772196975537, 444.2215768368915, -0.09600000455975533, 0.17600000835955143, 0.9760000463575125, 0.0, 0.0, 0.0, 0.0, 0.0, 1.6511848957606432E9, 0.0, 2022-04-28 15:28:15.760
93.0, 21.319299697410315, 2749.512739073951, 1433.604630314745, 599.459214147646, -0.09600000455975533, 0.17600000835955143, 0.9760000463575125, 0.0, 0.0, 0.0, 0.0, 0.0, 1.6511848957613773E9, 0.0, 2022-04-28 15:28:15.761
93.0, -90.1745977816172, 2753.839803322684, 1193.6993979071267, 672.7107646297663, -0.09600000455975533, 0.17600000835955143, 0.9760000463575125, 0.0, 0.0, 0.0, 0.0, 0.0, 1.6511848957613773E9, 0.0, 2022-04-28 15:28:15.761
94.0, 86.78624842176214, 2643.4790955302306, 1155.7955118562095, 827.561322295107, -0.09600000455975533, 0.17600000835955143, 0.9760000463575125, 0.0, 0.0, 0.0, 0.0, 0.0, 1.651184895773595E9, 0.0, 2022-04-28 15:28:15.773
94.0, 32.27346666762605, 2719.4963020295836, 1325.964699740056, 777.4840618884191, -0.09600000455975533, 0.17600000835955143, 0.9760000463575125, 0.0, 0.0, 0.0, 0.0, 0.0, 1.651184895773595E9, 0.0, 2022-04-28 15:28:15.773
95.0, -75.59272785438225, 2891.9617884862237, 1408.2499785651453, 579.329202636145, -0.09600000455975533, 0.17600000835955143, 0.9760000463575125, 0.0, 0.0, 0.0, 0.0, 0.0, 1.6511848957899292E9, 0.0, 2022-04-28 15:28:15.789
95.0, 40.37782987160608, 2880.1063056266867, 1350.2142110527493, 367.02069200156257, -0.09600000455975533, 0.17600000835955143, 0.9760000463575125, 0.0, 0.0, 0.0, 0.0, 0.0, 1.6511848957899292E9, 0.0, 2022-04-28 15:28:15.789
96.0, 50.17636775551364, 2745.110876826104, 1226.307585620787, 495.7405686764978, -0.09600000455975533, 0.17600000835955143, 0.9760000463575125, 0.0, 0.0, 0.0, 0.0, 0.0, 1.6511848957906952E9, 0.0, 2022-04-28 15:28:15.790
96.0, -11.745155810844153, 2542.297972179018, 1417.0611828607507, 378.73405866278335, -0.09600000455975533, 0.17600000835955143, 0.9760000463575125, 0.0, 0.0, 0.0, 0.0, 0.0, 1.6511848957906952E9, 0.0, 2022-04-28 15:28:15.790
97.0, -52.10615613264963, 2355.5591575414874, 1356.8805827237666, 334.00859509268776, -0.09600000455975533, 0.17600000835955143, 0.9760000463575125, 0.0, 0.0, 0.0, 0.0, 0.0, 1.6511848958035717E9, 0.0, 2022-04-28 15:28:15.803
97.0, 83.51383596053347, 2312.759742448572, 1490.8045301870443, 434.892396397423, -0.09600000455975533, 0.17600000835955143, 0.9760000463575125, 0.0, 0.0, 0.0, 0.0, 0.0, 1.6511848958035717E9, 0.0, 2022-04-28 15:28:15.803
98.0, 18.72380912816152, 2239.3174570687115, 1450.6884933123365, 586.0909417560324, -0.09600000455975533, 0.17600000835955143, 0.9760000463575125, 0.0, 0.0, 0.0, 0.0, 0.0, 1.651184895819272E9, 0.0, 2022-04-28 15:28:15.819
98.0, -96.91015760181472, 2230.882112718653, 1205.996188961435, 662.7570208976977, -0.09600000455975533, 0.17600000835955143, 0.9760000463575125, 0.0, 0.0, 0.0, 0.0, 0.0, 1.651184895819272E9, 0.0, 2022-04-28 15:28:15.819
99.0, 89.68093098746613, 2133.8504083682783, 1098.9901714292355, 876.3651467668824, -0.09600000455975533, 0.17600000835955143, 0.9760000463575125, 0.0, 0.0, 0.0, 0.0, 0.0, 1.6511848958200293E9, 0.0, 2022-04-28 15:28:15.820
99.0, 30.066925693769008, 2206.999111601617, 1325.2690783482976, 749.3132654721849, -0.09600000455975533, 0.17600000835955143, 0.9760000463575125, 0.0, 0.0, 0.0, 0.0, 0.0, 1.6511848958200293E9, 0.0, 2022-04-28 15:28:15.820
100.0, -65.85402836976573, 2437.249792273622, 1446.1800439157523, 524.4106417368166, -0.09600000455975533, 0.17600000835955143, 0.9760000463575125, 0.0, 0.0, 0.0, 0.0, 0.0, 1.651184895834297E9, 0.0, 2022-04-28 15:28:15.834
100.0, 39.24838008498773, 2331.3620048281737, 1283.4943958432414, 438.08440100960433, -0.09600000455975533, 0.17600000835955143, 0.9760000463575125, 0.0, 0.0, 0.0, 0.0, 0.0, 1.651184895834297E9, 0.0, 2022-04-28 15:28:15.834
0.0, 47.36396298883483, -4095.975830471143, -5135.800784601364, 5379.101846168749, -0.09600000455975533, 0.17600000835955143, 0.9760000463575125, 0.0, 0.0, 0.0, 0.0, 0.0, 1.6511848958350503E9, 0.0, 2022-04-28 15:28:15.835
1.0, -15.219522869680077, -4287.999123746064, -4927.316321671475, 5228.166963757016, -0.09600000455975533, 0.17600000835955143, 0.9760000463575125, 0.0, 0.0, 0.0, 0.0, 0.0, 1.6511848958486793E9, 0.0, 2022-04-28 15:28:15.848
1.0, -40.202054573688656, -4082.386903982144, -5053.375259527937, 5296.111596202012, -0.09600000455975533, 0.17600000835955143, 0.9760000463575125, 0.0, 0.0, 0.0, 0.0, 0.0, 1.6511848958486793E9, 0.0, 2022-04-28 15:28:15.848
2.0, 83.30440156301484, -4053.643902872689, -4886.959061249625, 5345.990641911048, -0.09600000455975533, 0.17600000835955143, 0.9760000463575125, 0.0, 0.0, 0.0, 0.0, 0.0, 1.651184895864284E9, 0.0, 2022-04-28 15:28:15.864
2.0, 17.209149646107107, -4125.212498374749, -4913.469342085533, 5458.208210031502, -0.09600000455975533, 0.17600000835955143, 0.9760000463575125, 0.0, 0.0, 0.0, 0.0, 0.0, 1.651184895864284E9, 0.0, 2022-04-28 15:28:15.864
3.0, -91.13949197018519, -4116.603248676751, -5157.649280142505, 5567.340360688511, -0.09600000455975533, 0.17600000835955143, 0.9760000463575125, 0.0, 0.0, 0.0, 0.0, 0.0, 1.651184895865097E9, 0.0, 2022-04-28 15:28:15.865
3.0, 88.81327419774607, -4252.619670165237, -5300.565817049239, 5329.533212156035, -0.09600000455975533, 0.17600000835955143, 0.9760000463575125, 0.0, 0.0, 0.0, 0.0, 0.0, 1.651184895865097E9, 0.0, 2022-04-28 15:28:15.865
4.0, 27.96510191867128, -4171.235707229469, -5497.03959127143, 5150.85949177295, -0.09600000455975533, 0.17600000835955143, 0.9760000463575125, 0.0, 0.0, 0.0, 0.0, 0.0, 1.6511848958785875E9, 0.0, 2022-04-28 15:28:15.878
4.0, -70.06889561982825, -4372.174921998754, -5373.578013934195, 5390.645047381986, -0.09600000455975533, 0.17600000835955143, 0.9760000463575125, 0.0, 0.0, 0.0, 0.0, 0.0, 1.6511848958785875E9, 0.0, 2022-04-28 15:28:15.878
5.0, 39.34561748383567, -4574.888719297014, -5143.415220911149, 5396.827102008741, -0.09600000455975533, 0.17600000835955143, 0.9760000463575125, 0.0, 0.0, 0.0, 0.0, 0.0, 1.6511848958942444E9, 0.0, 2022-04-28 15:28:15.894
5.0, 46.12979600345716, -4563.076245286968, -5107.19615979027, 5340.996005520225, -0.09600000455975533, 0.17600000835955143, 0.9760000463575125, 0.0, 0.0, 0.0, 0.0, 0.0, 1.6511848958942444E9, 0.0, 2022-04-28 15:28:15.894
6.0, -17.179230446461588, -4745.091566280462, -4884.12608703319, 5203.651919547468, -0.09600000455975533, 0.17600000835955143, 0.9760000463575125, 0.0, 0.0, 0.0, 0.0, 0.0, 1.6511848958950253E9, 0.0, 2022-04-28 15:28:15.895
6.0, -41.71297415578738, -4643.51962338388, -5121.11419747537, 5362.42376231635, -0.09600000455975533, 0.17600000835955143, 0.9760000463575125, 0.0, 0.0, 0.0, 0.0, 0.0, 1.6511848958950253E9, 0.0, 2022-04-28 15:28:15.895
7.0, 83.89156585605815, -4539.279261868913, -4879.574628787115, 5339.189633841626, -0.09600000455975533, 0.17600000835955143, 0.9760000463575125, 0.0, 0.0, 0.0, 0.0, 0.0, 1.651184895908572E9, 0.0, 2022-04-28 15:28:15.908
7.0, 23.305186573881656, -4570.314821651205, -4889.801385215949, 5452.970480143558, -0.09600000455975533, 0.17600000835955143, 0.9760000463575125, 0.0, 0.0, 0.0, 0.0, 0.0, 1.651184895908572E9, 0.0, 2022-04-28 15:28:15.908
8.0, -94.57646002946422, -4584.094483037945, -4662.59124320792, 5562.659875893965, -0.09600000455975533, 0.17600000835955143, 0.9760000463575125, 0.0, 0.0, 0.0, 0.0, 0.0, 1.6511848959242852E9, 0.0, 2022-04-28 15:28:15.924
8.0, 85.03597524249926, -4750.718245763797, -4854.7510428312235, 5341.981469158549, -0.09600000455975533, 0.17600000835955143, 0.9760000463575125, 0.0, 0.0, 0.0, 0.0, 0.0, 1.6511848959242852E9, 0.0, 2022-04-28 15:28:15.924
9.0, 32.479161165189, -4673.171420182567, -4998.6455635763705, 5136.436567593832, -0.09600000455975533, 0.17600000835955143, 0.9760000463575125, 0.0, 0.0, 0.0, 0.0, 0.0, 1.6511848959249136E9, 0.0, 2022-04-28 15:28:15.924
9.0, -69.46677172696218, -4863.88200857304, -4839.613797760569, 5349.324762721546, -0.09600000455975533, 0.17600000835955143, 0.9760000463575125, 0.0, 0.0, 0.0, 0.0, 0.0, 1.6511848959249136E9, 0.0, 2022-04-28 15:28:15.924
10.0, 42.18794145016, -4648.589057773817, -4713.618438203353, 5466.802500129677, -0.09600000455975533, 0.17600000835955143, 0.9760000463575125, 0.0, 0.0, 0.0, 0.0, 0.0, 1.651184895938586E9, 0.0, 2022-04-28 15:28:15.938
10.0, 50.89068864705041, -4566.073775101453, -4586.549727358855, 5332.55692127021, -0.09600000455975533, 0.17600000835955143, 0.9760000463575125, 0.0, 0.0, 0.0, 0.0, 0.0, 1.651184895938586E9, 0.0, 2022-04-28 15:28:15.938
11.0, -17.815013438928872, -4703.6553447213955, -4827.015944759827, 5143.404001211282, -0.09600000455975533, 0.17600000835955143, 0.9760000463575125, 0.0, 0.0, 0.0, 0.0, 0.0, 1.6511848959543364E9, 0.0, 2022-04-28 15:28:15.954
11.0, -46.46638699946925, -4701.987349341158, -4660.193967336323, 4916.313536001835, -0.09600000455975533, 0.17600000835955143, 0.9760000463575125, 0.0, 0.0, 0.0, 0.0, 0.0, 1.6511848959543364E9, 0.0, 2022-04-28 15:28:15.954
12.0, 77.7244708291255, -4544.599269555882, -4869.58348605549, 4819.567933998071, -0.09600000455975533, 0.17600000835955143, 0.9760000463575125, 0.0, 0.0, 0.0, 0.0, 0.0, 1.6511848959549432E9, 0.0, 2022-04-28 15:28:15.954
12.0, 22.886317778844386, -4589.43506017467, -4861.011635357048, 4937.167218154762, -0.09600000455975533, 0.17600000835955143, 0.9760000463575125, 0.0, 0.0, 0.0, 0.0, 0.0, 1.6511848959549432E9, 0.0, 2022-04-28 15:28:15.954
13.0, -94.9541899249889, -4613.914575334638, -4635.035660334397, 5045.951558115892, -0.09600000455975533, 0.17600000835955143, 0.9760000463575125, 0.0, 0.0, 0.0, 0.0, 0.0, 1.6511848959685843E9, 0.0, 2022-04-28 15:28:15.968
13.0, 83.77188905747607, -4792.980985213071, -4878.544286349323, 4896.196614140179, -0.09600000455975533, 0.17600000835955143, 0.9760000463575125, 0.0, 0.0, 0.0, 0.0, 0.0, 1.6511848959685843E9, 0.0, 2022-04-28 15:28:15.968
14.0, 27.340538626071066, -4660.528688382357, -4985.739168829285, 5104.574489921331, -0.09600000455975533, 0.17600000835955143, 0.9760000463575125, 0.0, 0.0, 0.0, 0.0, 0.0, 1.6511848959842465E9, 0.0, 2022-04-28 15:28:15.984
14.0, -67.70901874778792, -4804.890696621966, -4783.474159525707, 5288.302685094532, -0.09600000455975533, 0.17600000835955143, 0.9760000463575125, 0.0, 0.0, 0.0, 0.0, 0.0, 1.6511848959842465E9, 0.0, 2022-04-28 15:28:15.984
15.0, 48.43731427611783, -4696.514005756006, -4775.09865357494, 5530.513565824833, -0.09600000455975533, 0.17600000835955143, 0.9760000463575125, 0.0, 0.0, 0.0, 0.0, 0.0, 1.651184895985028E9, 0.0, 2022-04-28 15:28:15.985
15.0, 50.692473949398845, -4552.036060617771, -4570.150266053155, 5300.889318395406, -0.09600000455975533, 0.17600000835955143, 0.9760000463575125, 0.0, 0.0, 0.0, 0.0, 0.0, 1.651184895985028E9, 0.0, 2022-04-28 15:28:15.985
16.0, -15.694490164052695, -4668.517114687711, -4788.352859017905, 5094.312204442918, -0.09600000455975533, 0.17600000835955143, 0.9760000463575125, 0.0, 0.0, 0.0, 0.0, 0.0, 1.651184895998557E9, 0.0, 2022-04-28 15:28:15.998
16.0, -44.727333520073444, -4781.138592003379, -4711.187503232155, 4952.846748718992, -0.09600000455975533, 0.17600000835955143, 0.9760000463575125, 0.0, 0.0, 0.0, 0.0, 0.0, 1.651184895998557E9, 0.0, 2022-04-28 15:28:15.998
17.0, 80.06564820138738, -5003.703778266441, -4864.198030119296, 4839.7951829084195, -0.09600000455975533, 0.17600000835955143, 0.9760000463575125, 0.0, 0.0, 0.0, 0.0, 0.0, 1.6511848960142376E9, 0.0, 2022-04-28 15:28:16.014
17.0, 14.826833374332637, -5055.409765103832, -4848.411912406329, 4913.925609880127, -0.09600000455975533, 0.17600000835955143, 0.9760000463575125, 0.0, 0.0, 0.0, 0.0, 0.0, 1.6511848960142376E9, 0.0, 2022-04-28 15:28:16.014
18.0, -93.60034614102915, -5120.197921986226, -4628.651651110034, 5026.958476190921, -0.09600000455975533, 0.17600000835955143, 0.9760000463575125, 0.0, 0.0, 0.0, 0.0, 0.0, 1.6511848960150695E9, 0.0, 2022-04-28 15:28:16.015
18.0, 81.78600218100473, -5326.098114046734, -4421.859492910095, 4927.183555223048, -0.09600000455975533, 0.17600000835955143, 0.9760000463575125, 0.0, 0.0, 0.0, 0.0, 0.0, 1.6511848960150695E9, 0.0, 2022-04-28 15:28:16.015
19.0, 31.95183527143672, -5157.645540242549, -4467.360985720996, 5097.582746954169, -0.09600000455975533, 0.17600000835955143, 0.9760000463575125, 0.0, 0.0, 0.0, 0.0, 0.0, 1.6511848960285592E9, 0.0, 2022-04-28 15:28:16.028
19.0, -71.47135810321197, -5344.1562209827825, -4255.720047228504, 5245.763193048537, -0.09600000455975533, 0.17600000835955143, 0.9760000463575125, 0.0, 0.0, 0.0, 0.0, 0.0, 1.6511848960285592E9, 0.0, 2022-04-28 15:28:16.028
20.0, 44.708634020294994, -5239.994397366885, -4328.068411871325, 5079.118860872928, -0.09600000455975533, 0.17600000835955143, 0.9760000463575125, 0.0, 0.0, 0.0, 0.0, 0.0, 1.6511848960443025E9, 0.0, 2022-04-28 15:28:16.044
20.0, 48.54577137483284, -5015.714466974139, -4529.200231488328, 5265.900684359949, -0.09600000455975533, 0.17600000835955143, 0.9760000463575125, 0.0, 0.0, 0.0, 0.0, 0.0, 1.6511848960443025E9, 0.0, 2022-04-28 15:28:16.044
21.0, -15.855305862147361, -5101.468503008131, -4751.3072800068185, 5049.349257225636, -0.09600000455975533, 0.17600000835955143, 0.9760000463575125, 0.0, 0.0, 0.0, 0.0, 0.0, 1.6511848960450344E9, 0.0, 2022-04-28 15:28:16.045
21.0, -44.297245025169104, -5341.298937416635, -4761.133867140394, 5009.840954093728, -0.09600000455975533, 0.17600000835955143, 0.9760000463575125, 0.0, 0.0, 0.0, 0.0, 0.0, 1.6511848960450344E9, 0.0, 2022-04-28 15:28:16.045
22.0, 82.10763357719406, -5489.253119563684, -4862.335559941363, 4810.883886300959, -0.11200000531971455, 0.17600000835955143, 0.9760000463575125, 0.0, 0.0, 0.0, 0.0, 0.0, 1.651184896058556E9, 0.0, 2022-04-28 15:28:16.058
22.0, 17.46346284309402, -5547.5824692226015, -4834.5855022701435, 4882.9723278968595, -0.11200000531971455, 0.17600000835955143, 0.9760000463575125, 0.0, 0.0, 0.0, 0.0, 0.0, 1.651184896058556E9, 0.0, 2022-04-28 15:28:16.058
23.0, -89.29946119198576, -5600.885393341072, -4604.0468493015505, 5003.256860221736, -0.11200000531971455, 0.17600000835955143, 0.9760000463575125, 0.0, 0.0, 0.0, 0.0, 0.0, 1.651184896074402E9, 0.0, 2022-04-28 15:28:16.074
23.0, 83.95888405526057, -5810.820937453769, -4462.276591731235, 4967.2958521978, -0.11200000531971455, 0.17600000835955143, 0.9760000463575125, 0.0, 0.0, 0.0, 0.0, 0.0, 1.651184896074402E9, 0.0, 2022-04-28 15:28:16.074
24.0, 30.01456709438935, -5647.679021586664, -4485.155429710168, 5092.928441459313, -0.11200000531971455, 0.17600000835955143, 0.9760000463575125, 0.0, 0.0, 0.0, 0.0, 0.0, 1.6511848960750585E9, 0.0, 2022-04-28 15:28:16.075
24.0, -70.96647160919383, -5760.517413099762, -4708.649981112219, 5206.675628661644, -0.11200000531971455, 0.17600000835955143, 0.9760000463575125, 0.0, 0.0, 0.0, 0.0, 0.0, 1.6511848960750585E9, 0.0, 2022-04-28 15:28:16.075
25.0, 43.20519423810765, -5791.577282231767, -4907.526641055942, 5167.861076971516, -0.11200000531971455, 0.17600000835955143, 0.9760000463575125, 0.0, 0.0, 0.0, 0.0, 0.0, 1.651184896088532E9, 0.0, 2022-04-28 15:28:16.088
25.0, 46.09613690385595, -5996.20590830734, -5015.766825573519, 5240.95368170552, -0.11200000531971455, 0.17600000835955143, 0.9760000463575125, 0.0, 0.0, 0.0, 0.0, 0.0, 1.651184896088532E9, 0.0, 2022-04-28 15:28:16.088
26.0, -16.939876849297434, -6027.604238385335, -5205.138529779855, 5017.210426956415, -0.11200000531971455, 0.17600000835955143, 0.9760000463575125, 0.0, 0.0, 0.0, 0.0, 0.0, 1.651184896104192E9, 0.0, 2022-04-28 15:28:16.104
26.0, -46.82915729517117, -5871.485854635015, -5317.905863193795, 5078.931865875144, -0.11200000531971455, 0.17600000835955143, 0.9760000463575125, 0.0, 0.0, 0.0, 0.0, 0.0, 1.651184896104192E9, 0.0, 2022-04-28 15:28:16.104
27.0, 79.79263550462201, -5939.462276229635, -5343.120268695056, 5318.10968774138, -0.11200000531971455, 0.17600000835955143, 0.9760000463575125, 0.0, 0.0, 0.0, 0.0, 0.0, 1.6511848961049516E9, 0.0, 2022-04-28 15:28:16.104
27.0, 18.71632932825014, -6017.328863257077, -5304.075713157654, 5364.172165545635, -0.11200000531971455, 0.17600000835955143, 0.9760000463575125, 0.0, 0.0, 0.0, 0.0, 0.0, 1.6511848961049516E9, 0.0, 2022-04-28 15:28:16.104
28.0, -92.04828765941784, -6077.677758892067, -5072.979815095663, 5496.824547023978, -0.11200000531971455, 0.17600000835955143, 0.9760000463575125, 0.0, 0.0, 0.0, 0.0, 0.0, 1.6511848961186025E9, 0.0, 2022-04-28 15:28:16.118
28.0, 94.28100793296471, -6304.491471504793, -4990.6851865206845, 5506.768941006158, -0.11200000531971455, 0.17600000835955143, 0.9760000463575125, 0.0, 0.0, 0.0, 0.0, 0.0, 1.6511848961186025E9, 0.0, 2022-04-28 15:28:16.118
29.0, 31.64516347507015, -6127.164115105756, -4950.032474002335, 5571.882469184697, -0.11200000531971455, 0.17600000835955143, 0.9760000463575125, 0.0, 0.0, 0.0, 0.0, 0.0, 1.6511848961343331E9, 0.0, 2022-04-28 15:28:16.134
29.0, -72.78780288761482, -6250.369509296026, -5150.279807279818, 5640.249710324686, -0.11200000531971455, 0.17600000835955143, 0.9760000463575125, 0.0, 0.0, 0.0, 0.0, 0.0, 1.6511848961343331E9, 0.0, 2022-04-28 15:28:16.134
30.0, 43.55300493398681, -6316.101990917232, -4960.616390876938, 5722.108640554827, -0.11200000531971455, 0.17600000835955143, 0.9760000463575125, 0.0, 0.0, 0.0, 0.0, 0.0, 1.6511848961350768E9, 0.0, 2022-04-28 15:28:16.135
30.0, 45.14620231511071, -6467.126630927902, -4979.016698658932, 5717.461814859882, -0.11200000531971455, 0.17600000835955143, 0.9760000463575125, 0.0, 0.0, 0.0, 0.0, 0.0, 1.6511848961350768E9, 0.0, 2022-04-28 15:28:16.135
31.0, -17.706556340213865, -6517.27307948377, -5131.116559906863, 5920.514073104132, -0.11200000531971455, 0.17600000835955143, 0.9760000463575125, 0.0, 0.0, 0.0, 0.0, 0.0, 1.6511848961485744E9, 0.0, 2022-04-28 15:28:16.148
31.0, -44.75351281976327, -6475.468477779068, -5332.994489565026, 6083.242730026133, -0.11200000531971455, 0.17600000835955143, 0.9760000463575125, 0.0, 0.0, 0.0, 0.0, 0.0, 1.6511848961485744E9, 0.0, 2022-04-28 15:28:16.148
32.0, 82.78829536912963, -6452.305407403503, -5355.501207498368, 6286.382875919342, -0.09600000455975533, 0.17600000835955143, 0.9760000463575125, 0.0, 0.0, 0.0, 0.0, 0.0, 1.6511848961642666E9, 0.0, 2022-04-28 15:28:16.164
32.0, 22.063539788592607, -6516.274526195601, -5278.64626340894, 6314.03008634178, -0.09600000455975533, 0.17600000835955143, 0.9760000463575125, 0.0, 0.0, 0.0, 0.0, 0.0, 1.6511848961642666E9, 0.0, 2022-04-28 15:28:16.164
33.0, -91.81641386216506, -6606.037734982092, -5054.252266067546, 6447.460367010906, -0.09600000455975533, 0.17600000835955143, 0.9760000463575125, 0.0, 0.0, 0.0, 0.0, 0.0, 1.6511848961650352E9, 0.0, 2022-04-28 15:28:16.165
33.0, 88.49164280155674, -6838.494956627954, -5034.107294956222, 6515.51158660464, -0.09600000455975533, 0.17600000835955143, 0.9760000463575125, 0.0, 0.0, 0.0, 0.0, 0.0, 1.6511848961650352E9, 0.0, 2022-04-28 15:28:16.165
34.0, 29.805132696870714, -6649.061544072349, -4921.382970391773, 6513.566838627681, -0.09600000455975533, 0.17600000835955143, 0.9760000463575125, 0.0, 0.0, 0.0, 0.0, 0.0, 1.6511848961786077E9, 0.0, 2022-04-28 15:28:16.178
34.0, -70.7532973117195, -6698.777904133312, -5096.7824083636515, 6568.784591523465, -0.09600000455975533, 0.17600000835955143, 0.9760000463575125, 0.0, 0.0, 0.0, 0.0, 0.0, 1.6511848961786077E9, 0.0, 2022-04-28 15:28:16.178
35.0, 48.42235467629507, -6847.861536066979, -5019.933074124157, 6772.253848612774, -0.09600000455975533, 0.17600000835955143, 0.9760000463575125, 0.0, 0.0, 0.0, 0.0, 0.0, 1.6511848961944263E9, 0.0, 2022-04-28 15:28:16.194
35.0, 42.78632544307038, -6928.789231208153, -4965.407202720176, 6678.881636369042, -0.09600000455975533, 0.17600000835955143, 0.9760000463575125, 0.0, 0.0, 0.0, 0.0, 0.0, 1.6511848961944263E9, 0.0, 2022-04-28 15:28:16.194
36.0, -23.664216969627887, -6952.969554371666, -5105.352389112115, 6856.446476415265, -0.09600000455975533, 0.17600000835955143, 0.9760000463575125, 0.0, 0.0, 0.0, 0.0, 0.0, 1.6511848961950507E9, 0.0, 2022-04-28 15:28:16.195
36.0, -41.67557515623048, -7009.178380755708, -4923.032266272232, 6650.557504054625, -0.09600000455975533, 0.17600000835955143, 0.9760000463575125, 0.0, 0.0, 0.0, 0.0, 0.0, 1.6511848961950507E9, 0.0, 2022-04-28 15:28:16.195
37.0, 79.41864550905302, -6893.49392537633, -4871.7563679297455, 6776.2293622656725, -0.09600000455975533, 0.17600000835955143, 0.9760000463575125, 0.0, 0.0, 0.0, 0.0, 0.0, 1.6511848962085588E9, 0.0, 2022-04-28 15:28:16.208
37.0, 18.918283925857395, -6963.7236366942525, -4782.57845348632, 6800.738796625286, -0.09600000455975533, 0.17600000835955143, 0.9760000463575125, 0.0, 0.0, 0.0, 0.0, 0.0, 1.6511848962085588E9, 0.0, 2022-04-28 15:28:16.208
38.0, -87.93813760811463, -7079.991516466718, -4563.689588879701, 6936.730908764061, -0.09600000455975533, 0.17600000835955143, 0.9760000463575125, 0.0, 0.0, 0.0, 0.0, 0.0, 1.6511848962242668E9, 0.0, 2022-04-28 15:28:16.224
38.0, 89.03018839517608, -7323.649738479871, -4603.156753112096, 7073.760843140539, -0.09600000455975533, 0.17600000835955143, 0.9760000463575125, 0.0, 0.0, 0.0, 0.0, 0.0, 1.6511848962242668E9, 0.0, 2022-04-28 15:28:16.224
39.0, 23.361285073217005, -7088.825160162058, -4433.686926519964, 7008.503328813706, -0.09600000455975533, 0.17600000835955143, 0.9760000463575125, 0.0, 0.0, 0.0, 0.0, 0.0, 1.6511848962250917E9, 0.0, 2022-04-28 15:28:16.225
39.0, -69.39945352775976, -7105.791216311045, -4581.0595542239025, 7033.143659671769, -0.09600000455975533, 0.17600000835955143, 0.9760000463575125, 0.0, 0.0, 0.0, 0.0, 0.0, 1.6511848962250917E9, 0.0, 2022-04-28 15:28:16.225
40.0, 47.41632158821449, -6896.91219393583, -4620.48183965683, 6875.329231291544, -0.09600000455975533, 0.17600000835955143, 0.9760000463575125, 0.0, 0.0, 0.0, 0.0, 0.0, 1.6511848962385695E9, 0.0, 2022-04-28 15:28:16.238
40.0, 48.37747587682679, -6892.605699136853, -4482.372944143135, 6647.765668737702, -0.09600000455975533, 0.17600000835955143, 0.9760000463575125, 0.0, 0.0, 0.0, 0.0, 0.0, 1.6511848962385695E9, 0.0, 2022-04-28 15:28:16.238
41.0, -21.027587500866503, -6884.13108583726, -4570.06798825413, 6825.756857378874, -0.09600000455975533, 0.17600000835955143, 0.9760000463575125, 0.0, 0.0, 0.0, 0.0, 0.0, 1.6511848962543807E9, 0.0, 2022-04-28 15:28:16.254
41.0, -43.16779523855075, -7064.366214451846, -4480.508604015224, 6725.161028370727, -0.09600000455975533, 0.17600000835955143, 0.9760000463575125, 0.0, 0.0, 0.0, 0.0, 0.0, 1.6511848962543807E9, 0.0, 2022-04-28 15:28:16.254
42.0, 80.64533269451931, -7285.96650652634, -4390.565880030859, 6799.8318708860315, -0.09600000455975533, 0.17600000835955143, 0.9760000463575125, 0.0, 0.0, 0.0, 0.0, 0.0, 1.6511848962550128E9, 0.0, 2022-04-28 15:28:16.255
42.0, 17.684116940479726, -7407.847976132296, -4283.313029101584, 6787.879150627647, -0.09600000455975533, 0.17600000835955143, 0.9760000463575125, 0.0, 0.0, 0.0, 0.0, 0.0, 1.6511848962550128E9, 0.0, 2022-04-28 15:28:16.255
43.0, -90.14093868201599, -7560.549961273093, -4088.019193315413, 6952.156126131304, -0.09600000455975533, 0.17600000835955143, 0.9760000463575125, 0.0, 0.0, 0.0, 0.0, 0.0, 1.651184896268724E9, 0.0, 2022-04-28 15:28:16.268
43.0, 84.14961895300075, -7782.759857040364, -4174.586657589767, 7113.413132420741, -0.09600000455975533, 0.17600000835955143, 0.9760000463575125, 0.0, 0.0, 0.0, 0.0, 0.0, 1.651184896268724E9, 0.0, 2022-04-28 15:28:16.268
44.0, 27.11240472877398, -7553.309514958877, -3952.889128116425, 7005.494579299353, -0.09600000455975533, 0.17600000835955143, 0.9760000463575125, 0.0, 0.0, 0.0, 0.0, 0.0, 1.6511848962843935E9, 0.0, 2022-04-28 15:28:16.284
44.0, -70.62240081327036, -7583.8065291475505, -4044.092198385857, 6992.3675304548815, -0.09600000455975533, 0.17600000835955143, 0.9760000463575125, 0.0, 0.0, 0.0, 0.0, 0.0, 1.6511848962843935E9, 0.0, 2022-04-28 15:28:16.284
45.0, 45.29205841338262, -7416.806906476151, -4218.502432819456, 6949.2745332154445, -0.09600000455975533, 0.17600000835955143, 0.9760000463575125, 0.0, 0.0, 0.0, 0.0, 0.0, 1.6511848962851205E9, 0.0, 2022-04-28 15:28:16.285
45.0, 46.79549819556996, -7304.9895076509565, -4462.467326628976, 7138.064682978671, -0.09600000455975533, 0.17600000835955143, 0.9760000463575125, 0.0, 0.0, 0.0, 0.0, 0.0, 1.6511848962851205E9, 0.0, 2022-04-28 15:28:16.285
46.0, -17.85241243848577, -7315.223743879702, -4518.059069520328, 7271.928792042658, -0.09600000455975533, 0.17600000835955143, 0.9760000463575125, 0.0, 0.0, 0.0, 0.0, 0.0, 1.6511848962985673E9, 0.0, 2022-04-28 15:28:16.298
46.0, -37.34851090749726, -7128.460619892459, -4547.269558124244, 7284.893155239057, -0.09600000455975533, 0.17600000835955143, 0.9760000463575125, 0.0, 0.0, 0.0, 0.0, 0.0, 1.6511848962985673E9, 0.0, 2022-04-28 15:28:16.298
47.0, 77.51129653165117, -7228.596441206057, -4395.173436776269, 7278.260442667641, -0.09600000455975533, 0.17600000835955143, 0.9760000463575125, 0.0, 0.0, 0.0, 0.0, 0.0, 1.6511848963143225E9, 0.0, 2022-04-28 15:28:16.314
47.0, 18.398437832016498, -7385.412316298112, -4263.087650141213, 7246.202020247467, -0.09600000455975533, 0.17600000835955143, 0.9760000463575125, 0.0, 0.0, 0.0, 0.0, 0.0, 1.6511848963143225E9, 0.0, 2022-04-28 15:28:16.314
48.0, -88.29342810390517, -7597.212200538721, -4058.200970968697, 7417.790500164498, -0.09600000455975533, 0.17600000835955143, 0.9760000463575125, 0.0, 0.0, 0.0, 0.0, 0.0, 1.6511848963150845E9, 0.0, 2022-04-28 15:28:16.315
48.0, 84.36279325047508, -7809.099972428288, -4198.204125809949, 7643.8562327860855, -0.09600000455975533, 0.17600000835955143, 0.9760000463575125, 0.0, 0.0, 0.0, 0.0, 0.0, 1.6511848963150845E9, 0.0, 2022-04-28 15:28:16.315
49.0, 32.04159287037328, -8052.019564200193, -4408.264956571162, 7469.225344255101, -0.09600000455975533, 0.17600000835955143, 0.9760000463575125, 0.0, 0.0, 0.0, 0.0, 0.0, 1.651184896328576E9, 0.0, 2022-04-28 15:28:16.328
49.0, -74.66897256532684, -8064.041472607758, -4491.131789839361, 7428.912962632719, -0.09600000455975533, 0.17600000835955143, 0.9760000463575125, 0.0, 0.0, 0.0, 0.0, 0.0, 1.651184896328576E9, 0.0, 2022-04-28 15:28:16.328
50.0, 45.030265416484326, -7998.198663937859, -4256.92990486417, 7488.055740532, -0.09600000455975533, 0.17600000835955143, 0.9760000463575125, 0.0, 0.0, 0.0, 0.0, 0.0, 1.6511848963442447E9, 0.0, 2022-04-28 15:28:16.344
50.0, 42.17298185033724, -7807.278641149867, -4422.858046198264, 7588.913362537045, -0.09600000455975533, 0.17600000835955143, 0.9760000463575125, 0.0, 0.0, 0.0, 0.0, 0.0, 1.6511848963442447E9, 0.0, 2022-04-28 15:28:16.344
51.0, -20.922870302107185, -7793.583127512131, -4458.4525440265425, 7692.779734056443, -0.09600000455975533, 0.17600000835955143, 0.9760000463575125, 0.0, 0.0, 0.0, 0.0, 0.0, 1.6511848963452E9, 0.0, 2022-04-28 15:28:16.345
51.0, -35.52343972912058, -7747.073731663171, -4572.614860123955, 7817.4549089293, -0.09600000455975533, 0.17600000835955143, 0.9760000463575125, 0.0, 0.0, 0.0, 0.0, 0.0, 1.6511848963452E9, 0.0, 2022-04-28 15:28:16.345
52.0, 74.40343966847286, -7749.508406534325, -4365.751643824857, 7734.558156461455, -0.11200000531971455, 0.17600000835955143, 0.9760000463575125, 0.0, 0.0, 0.0, 0.0, 0.0, 1.651184896358621E9, 0.0, 2022-04-28 15:28:16.358
52.0, 17.46346284309402, -7920.337686760351, -4231.919323910493, 7685.385951844044, -0.11200000531971455, 0.17600000835955143, 0.9760000463575125, 0.0, 0.0, 0.0, 0.0, 0.0, 1.651184896358621E9, 0.0, 2022-04-28 15:28:16.358
53.0, -89.87166588520631, -8133.379217786249, -4001.8631180361845, 7870.467990801204, -0.11200000531971455, 0.17600000835955143, 0.9760000463575125, 0.0, 0.0, 0.0, 0.0, 0.0, 1.6511848963742836E9, 0.0, 2022-04-28 15:28:16.374
53.0, 89.09376669442281, -8325.191206713673, -4218.2537294724025, 7664.124620595947, -0.11200000531971455, 0.17600000835955143, 0.9760000463575125, 0.0, 0.0, 0.0, 0.0, 0.0, 1.6511848963742836E9, 0.0, 2022-04-28 15:28:16.374
54.0, 26.626217734534293, -8570.044326762669, -4373.910235578194, 7439.438911058009, -0.11200000531971455, 0.17600000835955143, 0.9760000463575125, 0.0, 0.0, 0.0, 0.0, 0.0, 1.6511848963750372E9, 0.0, 2022-04-28 15:28:16.375
54.0, -70.1249941191636, -8549.949844300747, -4424.999138922896, 7383.58350521978, -0.11200000531971455, 0.17600000835955143, 0.9760000463575125, 0.0, 0.0, 0.0, 0.0, 0.0, 1.6511848963750372E9, 0.0, 2022-04-28 15:28:16.375
55.0, 51.055244245100766, -8561.098486068659, -4301.771305332892, 7551.729407227598, -0.11200000531971455, 0.17600000835955143, 0.9760000463575125, 0.0, 0.0, 0.0, 0.0, 0.0, 1.6511848964050345E9, 0.0, 2022-04-28 15:28:16.405
55.0, 47.449980687815696, -8317.703927002382, -4397.591282097623, 7561.3596496135, -0.11200000531971455, 0.17600000835955143, 0.9760000463575125, 0.0, 0.0, 0.0, 0.0, 0.0, 1.6511848964050345E9, 0.0, 2022-04-28 15:28:16.405
56.0, -22.987295077648014, -8262.211291459855, -4417.366003113333, 7646.115132359322, -0.11200000531971455, 0.17600000835955143, 0.9760000463575125, 0.0, 0.0, 0.0, 0.0, 0.0, 1.651184896405778E9, 0.0, 2022-04-28 15:28:16.405
56.0, -37.374690207187086, -8290.542903574184, -4633.706125900149, 7866.995493692346, -0.11200000531971455, 0.17600000835955143, 0.9760000463575125, 0.0, 0.0, 0.0, 0.0, 0.0, 1.651184896405778E9, 0.0, 2022-04-28 15:28:16.405
57.0, 80.75378979323432, -8229.584404246416, -4861.290257903747, 7736.512254188303, -0.11200000531971455, 0.17600000835955143, 0.9760000463575125, 0.0, 0.0, 0.0, 0.0, 0.0, 1.6511848964064765E9, 0.0, 2022-04-28 15:28:16.406
57.0, 22.037360488902777, -8397.403065008111, -4696.132535960525, 7677.593870286364, -0.11200000531971455, 0.17600000835955143, 0.9760000463575125, 0.0, 0.0, 0.0, 0.0, 0.0, 1.6511848964064765E9, 0.0, 2022-04-28 15:28:16.406
58.0, -90.67200447572395, -8627.423741832841, -4494.918438544497, 7849.354385601357, -0.11200000531971455, 0.17600000835955143, 0.9760000463575125, 0.0, 0.0, 0.0, 0.0, 0.0, 1.6511848964186456E9, 0.0, 2022-04-28 15:28:16.418
58.0, 89.78564818622544, -8840.9159308034, -4252.840324262623, 7704.8465212634765, -0.11200000531971455, 0.17600000835955143, 0.9760000463575125, 0.0, 0.0, 0.0, 0.0, 0.0, 1.6511848964186456E9, 0.0, 2022-04-28 15:28:16.418
59.0, 27.404116925317794, -9069.14893544931, -4375.38001626078, 7923.494162322953, -0.11200000531971455, 0.17600000835955143, 0.9760000463575125, 0.0, 0.0, 0.0, 0.0, 0.0, 1.6511848964343214E9, 0.0, 2022-04-28 15:28:16.434
59.0, -73.08325498411432, -9027.078800847754, -4387.34582616901, 7821.469691531733, -0.11200000531971455, 0.17600000835955143, 0.9760000463575125, 0.0, 0.0, 0.0, 0.0, 0.0, 1.6511848964343214E9, 0.0, 2022-04-28 15:28:16.434
60.0, 49.963193458039314, -9055.973267905414, -4384.370735754259, 7627.5652285791, -0.11200000531971455, 0.17600000835955143, 0.9760000463575125, 0.0, 0.0, 0.0, 0.0, 0.0, 1.6511848964349573E9, 0.0, 2022-04-28 15:28:16.434
60.0, 42.95088104112074, -9233.70079359971, -4383.920077809598, 7540.0310001662, -0.11200000531971455, 0.17600000835955143, 0.9760000463575125, 0.0, 0.0, 0.0, 0.0, 0.0, 1.6511848964349573E9, 0.0, 2022-04-28 15:28:16.434
61.0, -23.058353176806122, -9212.327265352942, -4357.415406823624, 7583.4680682015605, -0.11200000531971455, 0.19200000911951065, 0.9760000463575125, 0.0, 0.0, 0.0, 0.0, 0.0, 1.6511848964486575E9, 0.0, 2022-04-28 15:28:16.448
61.0, -38.253566696774215, -9372.41181300627, -4202.059962664265, 7445.110469340812, -0.11200000531971455, 0.19200000911951065, 0.9760000463575125, 0.0, 0.0, 0.0, 0.0, 0.0, 1.6511848964486575E9, 0.0, 2022-04-28 15:28:16.448
62.0, 78.85392061574385, -9186.548134958372, -4353.032244075555, 7224.813532400876, -0.11200000531971455, 0.19200000911951065, 0.9760000463575125, 0.0, 0.0, 0.0, 0.0, 0.0, 1.6511848964642467E9, 0.0, 2022-04-28 15:28:16.464
62.0, 19.94675641367212, -9360.309496749658, -4158.617284778971, 7161.500766051002, -0.11200000531971455, 0.19200000911951065, 0.9760000463575125, 0.0, 0.0, 0.0, 0.0, 0.0, 1.6511848964642467E9, 0.0, 2022-04-28 15:28:16.464
63.0, -89.5425546891056, -9133.013337042648, -4003.2132219201885, 7367.440227061044, -0.11200000531971455, 0.19200000911951065, 0.9760000463575125, 0.0, 0.0, 0.0, 0.0, 0.0, 1.6511848964650772E9, 0.0, 2022-04-28 15:28:16.465
63.0, 87.93439770815894, -9328.284733429085, -3824.8480432834476, 7252.413994073868, -0.11200000531971455, 0.19200000911951065, 0.9760000463575125, 0.0, 0.0, 0.0, 0.0, 0.0, 1.6511848964650772E9, 0.0, 2022-04-28 15:28:16.465
64.0, 24.176583263557404, -9555.728619184345, -3860.423841611948, 7405.639565208461, -0.11200000531971455, 0.19200000911951065, 0.9760000463575125, 0.0, 0.0, 0.0, 0.0, 0.0, 1.6511848964786353E9, 0.0, 2022-04-28 15:28:16.478
64.0, -76.45664474414662, -9515.995922055095, -3832.95053653745, 7276.755132935476, -0.11200000531971455, 0.19200000911951065, 0.9760000463575125, 0.0, 0.0, 0.0, 0.0, 0.0, 1.6511848964786353E9, 0.0, 2022-04-28 15:28:16.478
65.0, 44.92554821772501, -9646.024763714522, -3951.2473120358773, 7200.646298887208, -0.11200000531971455, 0.19200000911951065, 0.9760000463575125, 0.0, 0.0, 0.0, 0.0, 0.0, 1.6511848964944215E9, 0.0, 2022-04-28 15:28:16.494
65.0, 43.523085734341294, -9764.706748908386, -3857.1607789006084, 7016.110285323579, -0.11200000531971455, 0.19200000911951065, 0.9760000463575125, 0.0, 0.0, 0.0, 0.0, 0.0, 1.6511848964944215E9, 0.0, 2022-04-28 15:28:16.494
66.0, -21.023847600910813, -9673.561647088267, -3813.1758155217394, 7031.550462290645, -0.11200000531971455, 0.19200000911951065, 0.9760000463575125, 0.0, 0.0, 0.0, 0.0, 0.0, 1.6511848964951744E9, 0.0, 2022-04-28 15:28:16.495
66.0, -36.02458632318303, -9446.044833283871, -3757.2755308840424, 6997.7829055907205, -0.11200000531971455, 0.19200000911951065, 0.9760000463575125, 0.0, 0.0, 0.0, 0.0, 0.0, 1.6511848964951744E9, 0.0, 2022-04-28 15:28:16.495
67.0, 74.43335886811838, -9625.085063862614, -3869.360332556069, 7227.072431974113, -0.11200000531971455, 0.19200000911951065, 0.9760000463575125, 0.0, 0.0, 0.0, 0.0, 0.0, 1.6511848965086012E9, 0.0, 2022-04-28 15:28:16.508
67.0, 16.921177349518985, -9823.159515265841, -3666.9868661537766, 7156.051731815562, -0.11200000531971455, 0.19200000911951065, 0.9760000463575125, 0.0, 0.0, 0.0, 0.0, 0.0, 1.6511848965086012E9, 0.0, 2022-04-28 15:28:16.508
